# E (eV)  ldosup(E)  ldosdw(E) pdosup(E)  pdosdw(E)  pdosup(E)  pdosdw(E)  pdosup(E)  pdosdw(E) 
   6.485 -0.342E-11 -0.931E-12 -0.114E-11 -0.310E-12 -0.114E-11 -0.310E-12 -0.114E-11 -0.310E-12
   6.495 -0.679E-11 -0.189E-11 -0.226E-11 -0.629E-12 -0.226E-11 -0.629E-12 -0.226E-11 -0.629E-12
   6.505 -0.133E-10 -0.379E-11 -0.444E-11 -0.126E-11 -0.444E-11 -0.126E-11 -0.444E-11 -0.126E-11
   6.515 -0.259E-10 -0.750E-11 -0.862E-11 -0.250E-11 -0.862E-11 -0.250E-11 -0.862E-11 -0.250E-11
   6.525 -0.496E-10 -0.147E-10 -0.165E-10 -0.490E-11 -0.166E-10 -0.490E-11 -0.165E-10 -0.490E-11
   6.535 -0.942E-10 -0.285E-10 -0.314E-10 -0.950E-11 -0.314E-10 -0.950E-11 -0.314E-10 -0.950E-11
   6.545 -0.177E-09 -0.546E-10 -0.589E-10 -0.182E-10 -0.589E-10 -0.182E-10 -0.589E-10 -0.182E-10
   6.555 -0.328E-09 -0.103E-09 -0.109E-09 -0.345E-10 -0.109E-09 -0.345E-10 -0.109E-09 -0.345E-10
   6.565 -0.600E-09 -0.194E-09 -0.200E-09 -0.646E-10 -0.200E-09 -0.646E-10 -0.200E-09 -0.646E-10
   6.575 -0.109E-08 -0.358E-09 -0.363E-09 -0.119E-09 -0.363E-09 -0.120E-09 -0.363E-09 -0.119E-09
   6.585 -0.195E-08 -0.656E-09 -0.650E-09 -0.219E-09 -0.650E-09 -0.219E-09 -0.650E-09 -0.219E-09
   6.595 -0.345E-08 -0.119E-08 -0.115E-08 -0.396E-09 -0.115E-08 -0.396E-09 -0.115E-08 -0.396E-09
   6.605 -0.604E-08 -0.212E-08 -0.201E-08 -0.707E-09 -0.201E-08 -0.707E-09 -0.201E-08 -0.707E-09
   6.615 -0.104E-07 -0.375E-08 -0.348E-08 -0.125E-08 -0.348E-08 -0.125E-08 -0.348E-08 -0.125E-08
   6.625 -0.179E-07 -0.655E-08 -0.595E-08 -0.218E-08 -0.595E-08 -0.218E-08 -0.595E-08 -0.218E-08
   6.635 -0.302E-07 -0.113E-07 -0.101E-07 -0.377E-08 -0.101E-07 -0.377E-08 -0.101E-07 -0.377E-08
   6.645 -0.504E-07 -0.193E-07 -0.168E-07 -0.644E-08 -0.168E-07 -0.644E-08 -0.168E-07 -0.644E-08
   6.655 -0.831E-07 -0.326E-07 -0.277E-07 -0.109E-07 -0.277E-07 -0.109E-07 -0.277E-07 -0.109E-07
   6.665 -0.136E-06 -0.543E-07 -0.452E-07 -0.181E-07 -0.452E-07 -0.181E-07 -0.452E-07 -0.181E-07
   6.675 -0.218E-06 -0.894E-07 -0.728E-07 -0.298E-07 -0.728E-07 -0.298E-07 -0.728E-07 -0.298E-07
   6.685 -0.347E-06 -0.145E-06 -0.116E-06 -0.485E-07 -0.116E-06 -0.485E-07 -0.116E-06 -0.485E-07
   6.695 -0.546E-06 -0.234E-06 -0.182E-06 -0.780E-07 -0.182E-06 -0.780E-07 -0.182E-06 -0.780E-07
   6.705 -0.849E-06 -0.372E-06 -0.283E-06 -0.124E-06 -0.283E-06 -0.124E-06 -0.283E-06 -0.124E-06
   6.715 -0.130E-05 -0.583E-06 -0.434E-06 -0.194E-06 -0.434E-06 -0.194E-06 -0.434E-06 -0.194E-06
   6.725 -0.197E-05 -0.905E-06 -0.658E-06 -0.302E-06 -0.658E-06 -0.302E-06 -0.658E-06 -0.302E-06
   6.735 -0.295E-05 -0.139E-05 -0.984E-06 -0.462E-06 -0.984E-06 -0.462E-06 -0.984E-06 -0.462E-06
   6.745 -0.436E-05 -0.210E-05 -0.145E-05 -0.698E-06 -0.145E-05 -0.699E-06 -0.145E-05 -0.698E-06
   6.755 -0.637E-05 -0.313E-05 -0.212E-05 -0.104E-05 -0.212E-05 -0.104E-05 -0.212E-05 -0.104E-05
   6.765 -0.917E-05 -0.462E-05 -0.306E-05 -0.154E-05 -0.306E-05 -0.154E-05 -0.306E-05 -0.154E-05
   6.775 -0.130E-04 -0.672E-05 -0.434E-05 -0.224E-05 -0.434E-05 -0.224E-05 -0.434E-05 -0.224E-05
   6.785 -0.183E-04 -0.966E-05 -0.609E-05 -0.322E-05 -0.609E-05 -0.322E-05 -0.609E-05 -0.322E-05
   6.795 -0.253E-04 -0.137E-04 -0.843E-05 -0.457E-05 -0.843E-05 -0.457E-05 -0.843E-05 -0.457E-05
   6.805 -0.345E-04 -0.192E-04 -0.115E-04 -0.639E-05 -0.115E-04 -0.640E-05 -0.115E-04 -0.639E-05
   6.815 -0.464E-04 -0.265E-04 -0.155E-04 -0.883E-05 -0.155E-04 -0.883E-05 -0.155E-04 -0.883E-05
   6.825 -0.615E-04 -0.361E-04 -0.205E-04 -0.120E-04 -0.205E-04 -0.120E-04 -0.205E-04 -0.120E-04
   6.835 -0.804E-04 -0.484E-04 -0.268E-04 -0.161E-04 -0.268E-04 -0.161E-04 -0.268E-04 -0.161E-04
   6.845 -0.103E-03 -0.641E-04 -0.345E-04 -0.214E-04 -0.345E-04 -0.214E-04 -0.345E-04 -0.214E-04
   6.855 -0.131E-03 -0.835E-04 -0.436E-04 -0.278E-04 -0.436E-04 -0.278E-04 -0.436E-04 -0.278E-04
   6.865 -0.163E-03 -0.107E-03 -0.543E-04 -0.357E-04 -0.543E-04 -0.357E-04 -0.543E-04 -0.357E-04
   6.875 -0.199E-03 -0.135E-03 -0.663E-04 -0.451E-04 -0.663E-04 -0.451E-04 -0.663E-04 -0.451E-04
   6.885 -0.239E-03 -0.168E-03 -0.795E-04 -0.559E-04 -0.795E-04 -0.560E-04 -0.795E-04 -0.559E-04
   6.895 -0.280E-03 -0.205E-03 -0.934E-04 -0.682E-04 -0.934E-04 -0.682E-04 -0.934E-04 -0.682E-04
   6.905 -0.322E-03 -0.245E-03 -0.107E-03 -0.815E-04 -0.107E-03 -0.815E-04 -0.107E-03 -0.815E-04
   6.915 -0.360E-03 -0.286E-03 -0.120E-03 -0.954E-04 -0.120E-03 -0.955E-04 -0.120E-03 -0.954E-04
   6.925 -0.390E-03 -0.327E-03 -0.130E-03 -0.109E-03 -0.130E-03 -0.109E-03 -0.130E-03 -0.109E-03
   6.935 -0.408E-03 -0.365E-03 -0.136E-03 -0.122E-03 -0.136E-03 -0.122E-03 -0.136E-03 -0.122E-03
   6.945 -0.408E-03 -0.394E-03 -0.136E-03 -0.131E-03 -0.136E-03 -0.131E-03 -0.136E-03 -0.131E-03
   6.955 -0.381E-03 -0.410E-03 -0.127E-03 -0.137E-03 -0.127E-03 -0.137E-03 -0.127E-03 -0.137E-03
   6.965 -0.320E-03 -0.405E-03 -0.107E-03 -0.135E-03 -0.107E-03 -0.135E-03 -0.107E-03 -0.135E-03
   6.975 -0.218E-03 -0.374E-03 -0.727E-04 -0.125E-03 -0.727E-04 -0.125E-03 -0.727E-04 -0.125E-03
   6.985 -0.659E-04 -0.308E-03 -0.220E-04 -0.103E-03 -0.220E-04 -0.103E-03 -0.220E-04 -0.103E-03
   6.995  0.143E-03 -0.199E-03  0.476E-04 -0.663E-04  0.477E-04 -0.663E-04  0.476E-04 -0.663E-04
   7.005  0.414E-03 -0.388E-04  0.138E-03 -0.129E-04  0.138E-03 -0.129E-04  0.138E-03 -0.129E-04
   7.015  0.752E-03  0.179E-03  0.250E-03  0.597E-04  0.251E-03  0.597E-04  0.250E-03  0.597E-04
   7.025  0.116E-02  0.460E-03  0.385E-03  0.153E-03  0.385E-03  0.153E-03  0.385E-03  0.153E-03
   7.035  0.162E-02  0.807E-03  0.541E-03  0.269E-03  0.541E-03  0.269E-03  0.541E-03  0.269E-03
   7.045  0.215E-02  0.122E-02  0.715E-03  0.407E-03  0.716E-03  0.407E-03  0.715E-03  0.407E-03
   7.055  0.272E-02  0.170E-02  0.905E-03  0.565E-03  0.905E-03  0.566E-03  0.905E-03  0.565E-03
   7.065  0.332E-02  0.223E-02  0.111E-02  0.743E-03  0.111E-02  0.743E-03  0.111E-02  0.743E-03
   7.075  0.393E-02  0.280E-02  0.131E-02  0.934E-03  0.131E-02  0.934E-03  0.131E-02  0.934E-03
   7.085  0.453E-02  0.341E-02  0.151E-02  0.114E-02  0.151E-02  0.114E-02  0.151E-02  0.114E-02
   7.095  0.509E-02  0.402E-02  0.170E-02  0.134E-02  0.170E-02  0.134E-02  0.170E-02  0.134E-02
   7.105  0.560E-02  0.461E-02  0.187E-02  0.154E-02  0.187E-02  0.154E-02  0.187E-02  0.154E-02
   7.115  0.602E-02  0.517E-02  0.201E-02  0.172E-02  0.201E-02  0.172E-02  0.201E-02  0.172E-02
   7.125  0.634E-02  0.567E-02  0.211E-02  0.189E-02  0.211E-02  0.189E-02  0.211E-02  0.189E-02
   7.135  0.654E-02  0.608E-02  0.218E-02  0.203E-02  0.218E-02  0.203E-02  0.218E-02  0.203E-02
   7.145  0.661E-02  0.638E-02  0.220E-02  0.213E-02  0.220E-02  0.213E-02  0.220E-02  0.213E-02
   7.155  0.655E-02  0.656E-02  0.218E-02  0.219E-02  0.218E-02  0.219E-02  0.218E-02  0.219E-02
   7.165  0.636E-02  0.661E-02  0.212E-02  0.220E-02  0.212E-02  0.220E-02  0.212E-02  0.220E-02
   7.175  0.605E-02  0.653E-02  0.202E-02  0.218E-02  0.202E-02  0.218E-02  0.202E-02  0.218E-02
   7.185  0.566E-02  0.632E-02  0.189E-02  0.211E-02  0.189E-02  0.211E-02  0.189E-02  0.211E-02
   7.195  0.522E-02  0.600E-02  0.174E-02  0.200E-02  0.174E-02  0.200E-02  0.174E-02  0.200E-02
   7.205  0.476E-02  0.560E-02  0.159E-02  0.187E-02  0.159E-02  0.187E-02  0.159E-02  0.187E-02
   7.215  0.432E-02  0.515E-02  0.144E-02  0.172E-02  0.144E-02  0.172E-02  0.144E-02  0.172E-02
   7.225  0.396E-02  0.469E-02  0.132E-02  0.156E-02  0.132E-02  0.156E-02  0.132E-02  0.156E-02
   7.235  0.373E-02  0.426E-02  0.124E-02  0.142E-02  0.124E-02  0.142E-02  0.124E-02  0.142E-02
   7.245  0.367E-02  0.392E-02  0.122E-02  0.131E-02  0.122E-02  0.131E-02  0.122E-02  0.131E-02
   7.255  0.381E-02  0.371E-02  0.127E-02  0.123E-02  0.127E-02  0.124E-02  0.127E-02  0.123E-02
   7.265  0.420E-02  0.367E-02  0.140E-02  0.122E-02  0.140E-02  0.122E-02  0.140E-02  0.122E-02
   7.275  0.484E-02  0.385E-02  0.161E-02  0.128E-02  0.161E-02  0.128E-02  0.161E-02  0.128E-02
   7.285  0.575E-02  0.427E-02  0.192E-02  0.142E-02  0.192E-02  0.142E-02  0.192E-02  0.142E-02
   7.295  0.692E-02  0.495E-02  0.231E-02  0.165E-02  0.231E-02  0.165E-02  0.231E-02  0.165E-02
   7.305  0.831E-02  0.590E-02  0.277E-02  0.197E-02  0.277E-02  0.197E-02  0.277E-02  0.197E-02
   7.315  0.989E-02  0.710E-02  0.330E-02  0.237E-02  0.330E-02  0.237E-02  0.330E-02  0.237E-02
   7.325  0.116E-01  0.852E-02  0.387E-02  0.284E-02  0.387E-02  0.284E-02  0.387E-02  0.284E-02
   7.335  0.134E-01  0.101E-01  0.446E-02  0.337E-02  0.446E-02  0.338E-02  0.446E-02  0.337E-02
   7.345  0.151E-01  0.119E-01  0.505E-02  0.395E-02  0.505E-02  0.395E-02  0.505E-02  0.395E-02
   7.355  0.168E-01  0.136E-01  0.561E-02  0.454E-02  0.561E-02  0.455E-02  0.561E-02  0.454E-02
   7.365  0.183E-01  0.154E-01  0.611E-02  0.513E-02  0.611E-02  0.513E-02  0.611E-02  0.513E-02
   7.375  0.196E-01  0.171E-01  0.653E-02  0.568E-02  0.654E-02  0.569E-02  0.653E-02  0.568E-02
   7.385  0.206E-01  0.185E-01  0.686E-02  0.618E-02  0.686E-02  0.618E-02  0.686E-02  0.618E-02
   7.395  0.212E-01  0.198E-01  0.706E-02  0.659E-02  0.706E-02  0.659E-02  0.706E-02  0.659E-02
   7.405  0.214E-01  0.207E-01  0.714E-02  0.690E-02  0.714E-02  0.690E-02  0.714E-02  0.690E-02
   7.415  0.213E-01  0.213E-01  0.709E-02  0.709E-02  0.710E-02  0.709E-02  0.709E-02  0.709E-02
   7.425  0.208E-01  0.214E-01  0.692E-02  0.715E-02  0.692E-02  0.715E-02  0.692E-02  0.715E-02
   7.435  0.199E-01  0.212E-01  0.663E-02  0.708E-02  0.664E-02  0.708E-02  0.663E-02  0.708E-02
   7.445  0.188E-01  0.207E-01  0.625E-02  0.689E-02  0.626E-02  0.689E-02  0.625E-02  0.689E-02
   7.455  0.174E-01  0.198E-01  0.580E-02  0.659E-02  0.580E-02  0.659E-02  0.580E-02  0.659E-02
   7.465  0.159E-01  0.186E-01  0.531E-02  0.620E-02  0.531E-02  0.620E-02  0.531E-02  0.620E-02
   7.475  0.144E-01  0.172E-01  0.480E-02  0.574E-02  0.480E-02  0.574E-02  0.480E-02  0.574E-02
   7.485  0.129E-01  0.157E-01  0.431E-02  0.524E-02  0.431E-02  0.524E-02  0.431E-02  0.524E-02
   7.495  0.116E-01  0.142E-01  0.386E-02  0.473E-02  0.386E-02  0.473E-02  0.386E-02  0.473E-02
   7.505  0.104E-01  0.127E-01  0.348E-02  0.424E-02  0.348E-02  0.424E-02  0.348E-02  0.424E-02
   7.515  0.958E-02  0.114E-01  0.319E-02  0.380E-02  0.319E-02  0.380E-02  0.319E-02  0.380E-02
   7.525  0.901E-02  0.103E-01  0.300E-02  0.343E-02  0.301E-02  0.343E-02  0.300E-02  0.343E-02
   7.535  0.878E-02  0.945E-02  0.293E-02  0.315E-02  0.293E-02  0.315E-02  0.293E-02  0.315E-02
   7.545  0.888E-02  0.893E-02  0.296E-02  0.298E-02  0.296E-02  0.298E-02  0.296E-02  0.298E-02
   7.555  0.928E-02  0.874E-02  0.309E-02  0.291E-02  0.309E-02  0.291E-02  0.309E-02  0.291E-02
   7.565  0.994E-02  0.887E-02  0.331E-02  0.296E-02  0.331E-02  0.296E-02  0.331E-02  0.296E-02
   7.575  0.108E-01  0.931E-02  0.360E-02  0.310E-02  0.360E-02  0.310E-02  0.360E-02  0.310E-02
   7.585  0.118E-01  0.100E-01  0.393E-02  0.333E-02  0.393E-02  0.334E-02  0.393E-02  0.333E-02
   7.595  0.128E-01  0.109E-01  0.428E-02  0.363E-02  0.428E-02  0.363E-02  0.428E-02  0.363E-02
   7.605  0.139E-01  0.119E-01  0.462E-02  0.397E-02  0.462E-02  0.397E-02  0.462E-02  0.397E-02
   7.615  0.148E-01  0.130E-01  0.493E-02  0.432E-02  0.493E-02  0.432E-02  0.493E-02  0.432E-02
   7.625  0.155E-01  0.140E-01  0.517E-02  0.466E-02  0.517E-02  0.466E-02  0.517E-02  0.466E-02
   7.635  0.160E-01  0.149E-01  0.534E-02  0.496E-02  0.534E-02  0.496E-02  0.534E-02  0.496E-02
   7.645  0.163E-01  0.156E-01  0.542E-02  0.520E-02  0.542E-02  0.520E-02  0.542E-02  0.520E-02
   7.655  0.162E-01  0.161E-01  0.540E-02  0.536E-02  0.540E-02  0.536E-02  0.540E-02  0.536E-02
   7.665  0.158E-01  0.163E-01  0.528E-02  0.543E-02  0.528E-02  0.543E-02  0.528E-02  0.543E-02
   7.675  0.152E-01  0.162E-01  0.506E-02  0.539E-02  0.506E-02  0.539E-02  0.506E-02  0.539E-02
   7.685  0.143E-01  0.158E-01  0.476E-02  0.526E-02  0.476E-02  0.526E-02  0.476E-02  0.526E-02
   7.695  0.132E-01  0.151E-01  0.440E-02  0.504E-02  0.440E-02  0.504E-02  0.440E-02  0.504E-02
   7.705  0.120E-01  0.142E-01  0.399E-02  0.473E-02  0.399E-02  0.473E-02  0.399E-02  0.473E-02
   7.715  0.107E-01  0.131E-01  0.355E-02  0.436E-02  0.355E-02  0.436E-02  0.355E-02  0.436E-02
   7.725  0.936E-02  0.118E-01  0.312E-02  0.395E-02  0.312E-02  0.395E-02  0.312E-02  0.395E-02
   7.735  0.814E-02  0.105E-01  0.271E-02  0.351E-02  0.271E-02  0.351E-02  0.271E-02  0.351E-02
   7.745  0.705E-02  0.924E-02  0.235E-02  0.308E-02  0.235E-02  0.308E-02  0.235E-02  0.308E-02
   7.755  0.616E-02  0.803E-02  0.205E-02  0.268E-02  0.205E-02  0.268E-02  0.205E-02  0.268E-02
   7.765  0.550E-02  0.696E-02  0.183E-02  0.232E-02  0.183E-02  0.232E-02  0.183E-02  0.232E-02
   7.775  0.510E-02  0.609E-02  0.170E-02  0.203E-02  0.170E-02  0.203E-02  0.170E-02  0.203E-02
   7.785  0.497E-02  0.546E-02  0.166E-02  0.182E-02  0.166E-02  0.182E-02  0.166E-02  0.182E-02
   7.795  0.511E-02  0.509E-02  0.170E-02  0.170E-02  0.170E-02  0.170E-02  0.170E-02  0.170E-02
   7.805  0.549E-02  0.500E-02  0.183E-02  0.167E-02  0.183E-02  0.167E-02  0.183E-02  0.167E-02
   7.815  0.606E-02  0.516E-02  0.202E-02  0.172E-02  0.202E-02  0.172E-02  0.202E-02  0.172E-02
   7.825  0.678E-02  0.556E-02  0.226E-02  0.185E-02  0.226E-02  0.185E-02  0.226E-02  0.185E-02
   7.835  0.759E-02  0.616E-02  0.253E-02  0.205E-02  0.253E-02  0.205E-02  0.253E-02  0.205E-02
   7.845  0.843E-02  0.689E-02  0.281E-02  0.230E-02  0.281E-02  0.230E-02  0.281E-02  0.230E-02
   7.855  0.922E-02  0.771E-02  0.307E-02  0.257E-02  0.307E-02  0.257E-02  0.307E-02  0.257E-02
   7.865  0.992E-02  0.854E-02  0.331E-02  0.285E-02  0.331E-02  0.285E-02  0.331E-02  0.285E-02
   7.875  0.105E-01  0.933E-02  0.349E-02  0.311E-02  0.349E-02  0.311E-02  0.349E-02  0.311E-02
   7.885  0.108E-01  0.100E-01  0.361E-02  0.334E-02  0.361E-02  0.334E-02  0.361E-02  0.334E-02
   7.895  0.110E-01  0.105E-01  0.367E-02  0.351E-02  0.367E-02  0.351E-02  0.367E-02  0.351E-02
   7.905  0.110E-01  0.109E-01  0.367E-02  0.363E-02  0.367E-02  0.363E-02  0.367E-02  0.363E-02
   7.915  0.109E-01  0.110E-01  0.362E-02  0.368E-02  0.362E-02  0.368E-02  0.362E-02  0.368E-02
   7.925  0.106E-01  0.110E-01  0.353E-02  0.367E-02  0.353E-02  0.367E-02  0.353E-02  0.367E-02
   7.935  0.103E-01  0.108E-01  0.344E-02  0.361E-02  0.344E-02  0.361E-02  0.344E-02  0.361E-02
   7.945  0.101E-01  0.106E-01  0.337E-02  0.352E-02  0.337E-02  0.352E-02  0.337E-02  0.352E-02
   7.955  0.101E-01  0.103E-01  0.335E-02  0.342E-02  0.335E-02  0.342E-02  0.335E-02  0.342E-02
   7.965  0.103E-01  0.100E-01  0.343E-02  0.335E-02  0.343E-02  0.335E-02  0.343E-02  0.335E-02
   7.975  0.109E-01  0.100E-01  0.364E-02  0.334E-02  0.364E-02  0.334E-02  0.364E-02  0.334E-02
   7.985  0.120E-01  0.103E-01  0.401E-02  0.343E-02  0.401E-02  0.343E-02  0.401E-02  0.343E-02
   7.995  0.137E-01  0.109E-01  0.456E-02  0.365E-02  0.456E-02  0.365E-02  0.456E-02  0.365E-02
   8.005  0.159E-01  0.121E-01  0.531E-02  0.403E-02  0.532E-02  0.403E-02  0.531E-02  0.403E-02
   8.015  0.188E-01  0.138E-01  0.627E-02  0.460E-02  0.627E-02  0.460E-02  0.627E-02  0.460E-02
   8.025  0.223E-01  0.161E-01  0.742E-02  0.537E-02  0.742E-02  0.537E-02  0.742E-02  0.537E-02
   8.035  0.262E-01  0.190E-01  0.873E-02  0.634E-02  0.874E-02  0.635E-02  0.873E-02  0.634E-02
   8.045  0.305E-01  0.225E-01  0.102E-01  0.751E-02  0.102E-01  0.751E-02  0.102E-01  0.751E-02
   8.055  0.351E-01  0.265E-01  0.117E-01  0.884E-02  0.117E-01  0.884E-02  0.117E-01  0.884E-02
   8.065  0.398E-01  0.309E-01  0.133E-01  0.103E-01  0.133E-01  0.103E-01  0.133E-01  0.103E-01
   8.075  0.443E-01  0.355E-01  0.148E-01  0.118E-01  0.148E-01  0.118E-01  0.148E-01  0.118E-01
   8.085  0.486E-01  0.402E-01  0.162E-01  0.134E-01  0.162E-01  0.134E-01  0.162E-01  0.134E-01
   8.095  0.523E-01  0.447E-01  0.174E-01  0.149E-01  0.174E-01  0.149E-01  0.174E-01  0.149E-01
   8.105  0.554E-01  0.489E-01  0.185E-01  0.163E-01  0.185E-01  0.163E-01  0.185E-01  0.163E-01
   8.115  0.577E-01  0.526E-01  0.192E-01  0.175E-01  0.192E-01  0.176E-01  0.192E-01  0.175E-01
   8.125  0.592E-01  0.557E-01  0.197E-01  0.186E-01  0.197E-01  0.186E-01  0.197E-01  0.186E-01
   8.135  0.598E-01  0.579E-01  0.199E-01  0.193E-01  0.199E-01  0.193E-01  0.199E-01  0.193E-01
   8.145  0.596E-01  0.593E-01  0.199E-01  0.198E-01  0.199E-01  0.198E-01  0.199E-01  0.198E-01
   8.155  0.587E-01  0.598E-01  0.196E-01  0.199E-01  0.196E-01  0.199E-01  0.196E-01  0.199E-01
   8.165  0.572E-01  0.595E-01  0.191E-01  0.198E-01  0.191E-01  0.198E-01  0.191E-01  0.198E-01
   8.175  0.553E-01  0.585E-01  0.184E-01  0.195E-01  0.184E-01  0.195E-01  0.184E-01  0.195E-01
   8.185  0.533E-01  0.569E-01  0.178E-01  0.190E-01  0.178E-01  0.190E-01  0.178E-01  0.190E-01
   8.195  0.513E-01  0.550E-01  0.171E-01  0.183E-01  0.171E-01  0.183E-01  0.171E-01  0.183E-01
   8.205  0.495E-01  0.528E-01  0.165E-01  0.176E-01  0.165E-01  0.176E-01  0.165E-01  0.176E-01
   8.215  0.482E-01  0.508E-01  0.161E-01  0.169E-01  0.161E-01  0.169E-01  0.161E-01  0.169E-01
   8.225  0.474E-01  0.490E-01  0.158E-01  0.163E-01  0.158E-01  0.163E-01  0.158E-01  0.163E-01
   8.235  0.473E-01  0.476E-01  0.158E-01  0.159E-01  0.158E-01  0.159E-01  0.158E-01  0.159E-01
   8.245  0.479E-01  0.469E-01  0.160E-01  0.156E-01  0.160E-01  0.156E-01  0.160E-01  0.156E-01
   8.255  0.491E-01  0.468E-01  0.163E-01  0.156E-01  0.164E-01  0.156E-01  0.163E-01  0.156E-01
   8.265  0.508E-01  0.473E-01  0.169E-01  0.158E-01  0.169E-01  0.158E-01  0.169E-01  0.158E-01
   8.275  0.528E-01  0.486E-01  0.176E-01  0.162E-01  0.176E-01  0.162E-01  0.176E-01  0.162E-01
   8.285  0.551E-01  0.503E-01  0.184E-01  0.168E-01  0.184E-01  0.168E-01  0.184E-01  0.168E-01
   8.295  0.573E-01  0.525E-01  0.191E-01  0.175E-01  0.191E-01  0.175E-01  0.191E-01  0.175E-01
   8.305  0.592E-01  0.548E-01  0.197E-01  0.183E-01  0.197E-01  0.183E-01  0.197E-01  0.183E-01
   8.315  0.607E-01  0.571E-01  0.202E-01  0.190E-01  0.202E-01  0.190E-01  0.202E-01  0.190E-01
   8.325  0.615E-01  0.591E-01  0.205E-01  0.197E-01  0.205E-01  0.197E-01  0.205E-01  0.197E-01
   8.335  0.615E-01  0.606E-01  0.205E-01  0.202E-01  0.205E-01  0.202E-01  0.205E-01  0.202E-01
   8.345  0.606E-01  0.615E-01  0.202E-01  0.205E-01  0.202E-01  0.205E-01  0.202E-01  0.205E-01
   8.355  0.588E-01  0.616E-01  0.196E-01  0.205E-01  0.196E-01  0.205E-01  0.196E-01  0.205E-01
   8.365  0.561E-01  0.608E-01  0.187E-01  0.203E-01  0.187E-01  0.203E-01  0.187E-01  0.203E-01
   8.375  0.526E-01  0.590E-01  0.175E-01  0.197E-01  0.175E-01  0.197E-01  0.175E-01  0.197E-01
   8.385  0.483E-01  0.564E-01  0.161E-01  0.188E-01  0.161E-01  0.188E-01  0.161E-01  0.188E-01
   8.395  0.435E-01  0.529E-01  0.145E-01  0.176E-01  0.145E-01  0.176E-01  0.145E-01  0.176E-01
   8.405  0.383E-01  0.486E-01  0.128E-01  0.162E-01  0.128E-01  0.162E-01  0.128E-01  0.162E-01
   8.415  0.330E-01  0.439E-01  0.110E-01  0.146E-01  0.110E-01  0.146E-01  0.110E-01  0.146E-01
   8.425  0.276E-01  0.387E-01  0.919E-02  0.129E-01  0.920E-02  0.129E-01  0.919E-02  0.129E-01
   8.435  0.224E-01  0.333E-01  0.745E-02  0.111E-01  0.745E-02  0.111E-01  0.745E-02  0.111E-01
   8.445  0.174E-01  0.279E-01  0.581E-02  0.930E-02  0.581E-02  0.930E-02  0.581E-02  0.930E-02
   8.455  0.129E-01  0.226E-01  0.430E-02  0.755E-02  0.430E-02  0.755E-02  0.430E-02  0.755E-02
   8.465  0.887E-02  0.177E-01  0.296E-02  0.590E-02  0.296E-02  0.590E-02  0.296E-02  0.590E-02
   8.475  0.537E-02  0.131E-01  0.179E-02  0.438E-02  0.179E-02  0.438E-02  0.179E-02  0.438E-02
   8.485  0.243E-02  0.907E-02  0.810E-03  0.302E-02  0.810E-03  0.303E-02  0.810E-03  0.302E-02
   8.495  0.268E-04  0.555E-02  0.892E-05  0.185E-02  0.891E-05  0.185E-02  0.892E-05  0.185E-02
   8.505 -0.187E-02  0.257E-02 -0.624E-03  0.858E-03 -0.624E-03  0.858E-03 -0.624E-03  0.858E-03
   8.515 -0.331E-02  0.145E-03 -0.110E-02  0.482E-04 -0.110E-02  0.482E-04 -0.110E-02  0.482E-04
   8.525 -0.435E-02 -0.178E-02 -0.145E-02 -0.592E-03 -0.145E-02 -0.592E-03 -0.145E-02 -0.592E-03
   8.535 -0.506E-02 -0.324E-02 -0.169E-02 -0.108E-02 -0.169E-02 -0.108E-02 -0.169E-02 -0.108E-02
   8.545 -0.548E-02 -0.429E-02 -0.183E-02 -0.143E-02 -0.183E-02 -0.143E-02 -0.183E-02 -0.143E-02
   8.555 -0.567E-02 -0.501E-02 -0.189E-02 -0.167E-02 -0.189E-02 -0.167E-02 -0.189E-02 -0.167E-02
   8.565 -0.567E-02 -0.543E-02 -0.189E-02 -0.181E-02 -0.189E-02 -0.181E-02 -0.189E-02 -0.181E-02
   8.575 -0.551E-02 -0.563E-02 -0.184E-02 -0.188E-02 -0.184E-02 -0.188E-02 -0.184E-02 -0.188E-02
   8.585 -0.519E-02 -0.563E-02 -0.173E-02 -0.188E-02 -0.173E-02 -0.188E-02 -0.173E-02 -0.188E-02
   8.595 -0.473E-02 -0.547E-02 -0.158E-02 -0.182E-02 -0.158E-02 -0.182E-02 -0.158E-02 -0.182E-02
   8.605 -0.411E-02 -0.516E-02 -0.137E-02 -0.172E-02 -0.137E-02 -0.172E-02 -0.137E-02 -0.172E-02
   8.615 -0.331E-02 -0.470E-02 -0.110E-02 -0.157E-02 -0.110E-02 -0.157E-02 -0.110E-02 -0.157E-02
   8.625 -0.231E-02 -0.408E-02 -0.770E-03 -0.136E-02 -0.770E-03 -0.136E-02 -0.770E-03 -0.136E-02
   8.635 -0.108E-02 -0.329E-02 -0.359E-03 -0.110E-02 -0.359E-03 -0.110E-02 -0.359E-03 -0.110E-02
   8.645  0.413E-03 -0.230E-02  0.138E-03 -0.767E-03  0.138E-03 -0.767E-03  0.138E-03 -0.767E-03
   8.655  0.219E-02 -0.109E-02  0.729E-03 -0.363E-03  0.729E-03 -0.363E-03  0.729E-03 -0.363E-03
   8.665  0.426E-02  0.375E-03  0.142E-02  0.125E-03  0.142E-02  0.125E-03  0.142E-02  0.125E-03
   8.675  0.666E-02  0.211E-02  0.222E-02  0.704E-03  0.222E-02  0.704E-03  0.222E-02  0.704E-03
   8.685  0.936E-02  0.414E-02  0.312E-02  0.138E-02  0.312E-02  0.138E-02  0.312E-02  0.138E-02
   8.695  0.124E-01  0.647E-02  0.413E-02  0.216E-02  0.413E-02  0.216E-02  0.413E-02  0.216E-02
   8.705  0.157E-01  0.910E-02  0.523E-02  0.303E-02  0.524E-02  0.303E-02  0.523E-02  0.303E-02
   8.715  0.193E-01  0.120E-01  0.643E-02  0.401E-02  0.643E-02  0.401E-02  0.643E-02  0.401E-02
   8.725  0.231E-01  0.152E-01  0.771E-02  0.507E-02  0.771E-02  0.507E-02  0.771E-02  0.507E-02
   8.735  0.272E-01  0.187E-01  0.906E-02  0.622E-02  0.906E-02  0.623E-02  0.906E-02  0.622E-02
   8.745  0.314E-01  0.223E-01  0.105E-01  0.745E-02  0.105E-01  0.745E-02  0.105E-01  0.745E-02
   8.755  0.357E-01  0.262E-01  0.119E-01  0.874E-02  0.119E-01  0.874E-02  0.119E-01  0.874E-02
   8.765  0.402E-01  0.302E-01  0.134E-01  0.101E-01  0.134E-01  0.101E-01  0.134E-01  0.101E-01
   8.775  0.446E-01  0.344E-01  0.149E-01  0.115E-01  0.149E-01  0.115E-01  0.149E-01  0.115E-01
   8.785  0.491E-01  0.386E-01  0.164E-01  0.129E-01  0.164E-01  0.129E-01  0.164E-01  0.129E-01
   8.795  0.535E-01  0.429E-01  0.178E-01  0.143E-01  0.178E-01  0.143E-01  0.178E-01  0.143E-01
   8.805  0.577E-01  0.471E-01  0.192E-01  0.157E-01  0.192E-01  0.157E-01  0.192E-01  0.157E-01
   8.815  0.618E-01  0.514E-01  0.206E-01  0.171E-01  0.206E-01  0.171E-01  0.206E-01  0.171E-01
   8.825  0.656E-01  0.555E-01  0.219E-01  0.185E-01  0.219E-01  0.185E-01  0.219E-01  0.185E-01
   8.835  0.690E-01  0.595E-01  0.230E-01  0.198E-01  0.230E-01  0.199E-01  0.230E-01  0.198E-01
   8.845  0.720E-01  0.634E-01  0.240E-01  0.211E-01  0.240E-01  0.211E-01  0.240E-01  0.211E-01
   8.855  0.745E-01  0.669E-01  0.248E-01  0.223E-01  0.248E-01  0.223E-01  0.248E-01  0.223E-01
   8.865  0.764E-01  0.701E-01  0.255E-01  0.234E-01  0.255E-01  0.234E-01  0.255E-01  0.234E-01
   8.875  0.776E-01  0.728E-01  0.259E-01  0.243E-01  0.259E-01  0.243E-01  0.259E-01  0.243E-01
   8.885  0.780E-01  0.750E-01  0.260E-01  0.250E-01  0.260E-01  0.250E-01  0.260E-01  0.250E-01
   8.895  0.776E-01  0.766E-01  0.259E-01  0.255E-01  0.259E-01  0.255E-01  0.259E-01  0.255E-01
   8.905  0.764E-01  0.775E-01  0.255E-01  0.258E-01  0.255E-01  0.258E-01  0.255E-01  0.258E-01
   8.915  0.744E-01  0.776E-01  0.248E-01  0.259E-01  0.248E-01  0.259E-01  0.248E-01  0.259E-01
   8.925  0.716E-01  0.769E-01  0.239E-01  0.256E-01  0.239E-01  0.256E-01  0.239E-01  0.256E-01
   8.935  0.680E-01  0.754E-01  0.227E-01  0.251E-01  0.227E-01  0.251E-01  0.227E-01  0.251E-01
   8.945  0.638E-01  0.731E-01  0.213E-01  0.243E-01  0.213E-01  0.244E-01  0.213E-01  0.243E-01
   8.955  0.590E-01  0.699E-01  0.197E-01  0.233E-01  0.197E-01  0.233E-01  0.197E-01  0.233E-01
   8.965  0.539E-01  0.661E-01  0.180E-01  0.220E-01  0.180E-01  0.220E-01  0.180E-01  0.220E-01
   8.975  0.485E-01  0.616E-01  0.162E-01  0.205E-01  0.162E-01  0.205E-01  0.162E-01  0.205E-01
   8.985  0.430E-01  0.566E-01  0.143E-01  0.189E-01  0.144E-01  0.189E-01  0.143E-01  0.189E-01
   8.995  0.378E-01  0.514E-01  0.126E-01  0.171E-01  0.126E-01  0.171E-01  0.126E-01  0.171E-01
   9.005  0.328E-01  0.459E-01  0.109E-01  0.153E-01  0.109E-01  0.153E-01  0.109E-01  0.153E-01
   9.015  0.284E-01  0.405E-01  0.945E-02  0.135E-01  0.946E-02  0.135E-01  0.945E-02  0.135E-01
   9.025  0.246E-01  0.354E-01  0.820E-02  0.118E-01  0.821E-02  0.118E-01  0.820E-02  0.118E-01
   9.035  0.217E-01  0.306E-01  0.724E-02  0.102E-01  0.725E-02  0.102E-01  0.724E-02  0.102E-01
   9.045  0.198E-01  0.265E-01  0.661E-02  0.884E-02  0.662E-02  0.884E-02  0.661E-02  0.884E-02
   9.055  0.190E-01  0.232E-01  0.634E-02  0.772E-02  0.635E-02  0.773E-02  0.634E-02  0.772E-02
   9.065  0.194E-01  0.208E-01  0.645E-02  0.692E-02  0.646E-02  0.693E-02  0.645E-02  0.692E-02
   9.075  0.209E-01  0.194E-01  0.696E-02  0.647E-02  0.697E-02  0.647E-02  0.696E-02  0.647E-02
   9.085  0.236E-01  0.192E-01  0.785E-02  0.639E-02  0.786E-02  0.639E-02  0.785E-02  0.639E-02
   9.095  0.273E-01  0.201E-01  0.910E-02  0.669E-02  0.911E-02  0.670E-02  0.910E-02  0.669E-02
   9.105  0.321E-01  0.222E-01  0.107E-01  0.739E-02  0.107E-01  0.740E-02  0.107E-01  0.739E-02
   9.115  0.376E-01  0.254E-01  0.125E-01  0.846E-02  0.126E-01  0.847E-02  0.125E-01  0.846E-02
   9.125  0.439E-01  0.296E-01  0.146E-01  0.987E-02  0.146E-01  0.988E-02  0.146E-01  0.987E-02
   9.135  0.506E-01  0.347E-01  0.168E-01  0.116E-01  0.169E-01  0.116E-01  0.168E-01  0.116E-01
   9.145  0.575E-01  0.406E-01  0.191E-01  0.135E-01  0.192E-01  0.135E-01  0.191E-01  0.135E-01
   9.155  0.644E-01  0.470E-01  0.214E-01  0.156E-01  0.215E-01  0.157E-01  0.214E-01  0.156E-01
   9.165  0.711E-01  0.537E-01  0.237E-01  0.179E-01  0.237E-01  0.179E-01  0.237E-01  0.179E-01
   9.175  0.774E-01  0.605E-01  0.258E-01  0.202E-01  0.258E-01  0.202E-01  0.258E-01  0.202E-01
   9.185  0.831E-01  0.672E-01  0.277E-01  0.224E-01  0.277E-01  0.224E-01  0.277E-01  0.224E-01
   9.195  0.881E-01  0.736E-01  0.294E-01  0.245E-01  0.294E-01  0.245E-01  0.294E-01  0.245E-01
   9.205  0.923E-01  0.795E-01  0.308E-01  0.265E-01  0.308E-01  0.265E-01  0.308E-01  0.265E-01
   9.215  0.957E-01  0.848E-01  0.319E-01  0.283E-01  0.319E-01  0.283E-01  0.319E-01  0.283E-01
   9.225  0.982E-01  0.894E-01  0.327E-01  0.298E-01  0.327E-01  0.298E-01  0.327E-01  0.298E-01
   9.235  0.998E-01  0.932E-01  0.333E-01  0.310E-01  0.333E-01  0.311E-01  0.333E-01  0.310E-01
   9.245  0.101E+00  0.961E-01  0.335E-01  0.320E-01  0.336E-01  0.321E-01  0.335E-01  0.320E-01
   9.255  0.101E+00  0.983E-01  0.336E-01  0.327E-01  0.336E-01  0.328E-01  0.336E-01  0.327E-01
   9.265  0.100E+00  0.996E-01  0.334E-01  0.332E-01  0.334E-01  0.332E-01  0.334E-01  0.332E-01
   9.275  0.988E-01  0.100E+00  0.329E-01  0.334E-01  0.330E-01  0.334E-01  0.329E-01  0.334E-01
   9.285  0.969E-01  0.100E+00  0.323E-01  0.334E-01  0.323E-01  0.334E-01  0.323E-01  0.334E-01
   9.295  0.944E-01  0.994E-01  0.315E-01  0.331E-01  0.315E-01  0.331E-01  0.315E-01  0.331E-01
   9.305  0.914E-01  0.980E-01  0.305E-01  0.327E-01  0.305E-01  0.327E-01  0.305E-01  0.327E-01
   9.315  0.879E-01  0.961E-01  0.293E-01  0.320E-01  0.293E-01  0.320E-01  0.293E-01  0.320E-01
   9.325  0.838E-01  0.935E-01  0.279E-01  0.312E-01  0.280E-01  0.312E-01  0.279E-01  0.312E-01
   9.335  0.793E-01  0.905E-01  0.264E-01  0.302E-01  0.264E-01  0.302E-01  0.264E-01  0.302E-01
   9.345  0.742E-01  0.869E-01  0.247E-01  0.290E-01  0.248E-01  0.290E-01  0.247E-01  0.290E-01
   9.355  0.687E-01  0.827E-01  0.229E-01  0.276E-01  0.229E-01  0.276E-01  0.229E-01  0.276E-01
   9.365  0.628E-01  0.781E-01  0.209E-01  0.260E-01  0.210E-01  0.260E-01  0.209E-01  0.260E-01
   9.375  0.565E-01  0.729E-01  0.188E-01  0.243E-01  0.189E-01  0.243E-01  0.188E-01  0.243E-01
   9.385  0.500E-01  0.672E-01  0.167E-01  0.224E-01  0.167E-01  0.224E-01  0.167E-01  0.224E-01
   9.395  0.433E-01  0.612E-01  0.144E-01  0.204E-01  0.144E-01  0.204E-01  0.144E-01  0.204E-01
   9.405  0.364E-01  0.548E-01  0.121E-01  0.183E-01  0.122E-01  0.183E-01  0.121E-01  0.183E-01
   9.415  0.296E-01  0.482E-01  0.987E-02  0.161E-01  0.988E-02  0.161E-01  0.987E-02  0.161E-01
   9.425  0.230E-01  0.414E-01  0.765E-02  0.138E-01  0.766E-02  0.138E-01  0.765E-02  0.138E-01
   9.435  0.166E-01  0.346E-01  0.552E-02  0.115E-01  0.552E-02  0.115E-01  0.552E-02  0.115E-01
   9.445  0.105E-01  0.278E-01  0.349E-02  0.927E-02  0.350E-02  0.928E-02  0.349E-02  0.927E-02
   9.455  0.486E-02  0.213E-01  0.162E-02  0.709E-02  0.162E-02  0.709E-02  0.162E-02  0.709E-02
   9.465 -0.208E-03  0.150E-01 -0.697E-04  0.500E-02 -0.690E-04  0.500E-02 -0.697E-04  0.500E-02
   9.475 -0.464E-02  0.910E-02 -0.155E-02  0.303E-02 -0.155E-02  0.304E-02 -0.155E-02  0.303E-02
   9.485 -0.834E-02  0.367E-02 -0.278E-02  0.122E-02 -0.278E-02  0.123E-02 -0.278E-02  0.122E-02
   9.495 -0.112E-01 -0.121E-02 -0.373E-02 -0.404E-03 -0.373E-02 -0.404E-03 -0.373E-02 -0.404E-03
   9.505 -0.131E-01 -0.548E-02 -0.436E-02 -0.183E-02 -0.436E-02 -0.183E-02 -0.436E-02 -0.183E-02
   9.515 -0.139E-01 -0.906E-02 -0.463E-02 -0.302E-02 -0.463E-02 -0.302E-02 -0.463E-02 -0.302E-02
   9.525 -0.135E-01 -0.119E-01 -0.449E-02 -0.395E-02 -0.449E-02 -0.396E-02 -0.449E-02 -0.395E-02
   9.535 -0.117E-01 -0.138E-01 -0.389E-02 -0.460E-02 -0.389E-02 -0.460E-02 -0.389E-02 -0.460E-02
   9.545 -0.833E-02 -0.147E-01 -0.278E-02 -0.491E-02 -0.278E-02 -0.492E-02 -0.278E-02 -0.491E-02
   9.555 -0.331E-02 -0.146E-01 -0.110E-02 -0.486E-02 -0.110E-02 -0.486E-02 -0.110E-02 -0.486E-02
   9.565  0.354E-02 -0.131E-01  0.118E-02 -0.437E-02  0.118E-02 -0.438E-02  0.118E-02 -0.437E-02
   9.575  0.123E-01 -0.103E-01  0.410E-02 -0.342E-02  0.410E-02 -0.342E-02  0.410E-02 -0.342E-02
   9.585  0.230E-01 -0.578E-02  0.767E-02 -0.193E-02  0.768E-02 -0.193E-02  0.767E-02 -0.193E-02
   9.595  0.357E-01  0.433E-03  0.119E-01  0.144E-03  0.119E-01  0.144E-03  0.119E-01  0.144E-03
   9.605  0.501E-01  0.852E-02  0.167E-01  0.284E-02  0.167E-01  0.284E-02  0.167E-01  0.284E-02
   9.615  0.662E-01  0.186E-01  0.220E-01  0.618E-02  0.221E-01  0.619E-02  0.220E-01  0.618E-02
   9.625  0.835E-01  0.305E-01  0.278E-01  0.102E-01  0.278E-01  0.102E-01  0.278E-01  0.102E-01
   9.635  0.102E+00  0.444E-01  0.339E-01  0.148E-01  0.339E-01  0.148E-01  0.339E-01  0.148E-01
   9.645  0.120E+00  0.600E-01  0.401E-01  0.200E-01  0.401E-01  0.200E-01  0.401E-01  0.200E-01
   9.655  0.139E+00  0.771E-01  0.462E-01  0.257E-01  0.462E-01  0.257E-01  0.462E-01  0.257E-01
   9.665  0.156E+00  0.952E-01  0.520E-01  0.317E-01  0.521E-01  0.317E-01  0.520E-01  0.317E-01
   9.675  0.172E+00  0.114E+00  0.574E-01  0.380E-01  0.574E-01  0.380E-01  0.574E-01  0.380E-01
   9.685  0.186E+00  0.133E+00  0.621E-01  0.442E-01  0.621E-01  0.442E-01  0.621E-01  0.442E-01
   9.695  0.198E+00  0.151E+00  0.659E-01  0.502E-01  0.660E-01  0.503E-01  0.659E-01  0.502E-01
   9.705  0.206E+00  0.168E+00  0.687E-01  0.559E-01  0.688E-01  0.559E-01  0.687E-01  0.559E-01
   9.715  0.211E+00  0.183E+00  0.704E-01  0.609E-01  0.705E-01  0.610E-01  0.704E-01  0.609E-01
   9.725  0.213E+00  0.195E+00  0.710E-01  0.651E-01  0.710E-01  0.652E-01  0.710E-01  0.651E-01
   9.735  0.211E+00  0.205E+00  0.703E-01  0.683E-01  0.704E-01  0.684E-01  0.703E-01  0.683E-01
   9.745  0.206E+00  0.211E+00  0.686E-01  0.705E-01  0.686E-01  0.705E-01  0.686E-01  0.705E-01
   9.755  0.197E+00  0.214E+00  0.658E-01  0.714E-01  0.658E-01  0.714E-01  0.658E-01  0.714E-01
   9.765  0.186E+00  0.213E+00  0.620E-01  0.711E-01  0.621E-01  0.711E-01  0.620E-01  0.711E-01
   9.775  0.173E+00  0.209E+00  0.576E-01  0.696E-01  0.576E-01  0.697E-01  0.576E-01  0.696E-01
   9.785  0.158E+00  0.201E+00  0.526E-01  0.670E-01  0.526E-01  0.671E-01  0.526E-01  0.670E-01
   9.795  0.142E+00  0.190E+00  0.473E-01  0.635E-01  0.473E-01  0.635E-01  0.473E-01  0.635E-01
   9.805  0.125E+00  0.177E+00  0.418E-01  0.591E-01  0.418E-01  0.591E-01  0.418E-01  0.591E-01
   9.815  0.109E+00  0.162E+00  0.363E-01  0.541E-01  0.363E-01  0.541E-01  0.363E-01  0.541E-01
   9.825  0.932E-01  0.146E+00  0.311E-01  0.487E-01  0.311E-01  0.488E-01  0.311E-01  0.487E-01
   9.835  0.785E-01  0.129E+00  0.262E-01  0.431E-01  0.262E-01  0.432E-01  0.262E-01  0.431E-01
   9.845  0.650E-01  0.113E+00  0.217E-01  0.376E-01  0.217E-01  0.376E-01  0.217E-01  0.376E-01
   9.855  0.531E-01  0.966E-01  0.177E-01  0.322E-01  0.177E-01  0.322E-01  0.177E-01  0.322E-01
   9.865  0.427E-01  0.815E-01  0.142E-01  0.272E-01  0.143E-01  0.272E-01  0.142E-01  0.272E-01
   9.875  0.340E-01  0.678E-01  0.113E-01  0.226E-01  0.113E-01  0.226E-01  0.113E-01  0.226E-01
   9.885  0.268E-01  0.556E-01  0.893E-02  0.185E-01  0.893E-02  0.186E-01  0.893E-02  0.185E-01
   9.895  0.210E-01  0.452E-01  0.700E-02  0.151E-01  0.700E-02  0.151E-01  0.700E-02  0.151E-01
   9.905  0.164E-01  0.366E-01  0.548E-02  0.122E-01  0.548E-02  0.122E-01  0.548E-02  0.122E-01
   9.915  0.129E-01  0.296E-01  0.431E-02  0.986E-02  0.431E-02  0.987E-02  0.431E-02  0.986E-02
   9.925  0.103E-01  0.241E-01  0.342E-02  0.804E-02  0.342E-02  0.804E-02  0.342E-02  0.804E-02
   9.935  0.824E-02  0.200E-01  0.275E-02  0.666E-02  0.275E-02  0.666E-02  0.275E-02  0.666E-02
   9.945  0.672E-02  0.169E-01  0.224E-02  0.565E-02  0.224E-02  0.565E-02  0.224E-02  0.565E-02
   9.955  0.555E-02  0.148E-01  0.185E-02  0.492E-02  0.185E-02  0.492E-02  0.185E-02  0.492E-02
   9.965  0.465E-02  0.132E-01  0.155E-02  0.440E-02  0.154E-02  0.439E-02  0.155E-02  0.440E-02
   9.975  0.395E-02  0.120E-01  0.132E-02  0.401E-02  0.131E-02  0.401E-02  0.132E-02  0.401E-02
   9.985  0.345E-02  0.111E-01  0.115E-02  0.371E-02  0.115E-02  0.371E-02  0.115E-02  0.371E-02
   9.995  0.318E-02  0.103E-01  0.106E-02  0.345E-02  0.106E-02  0.344E-02  0.106E-02  0.345E-02
  10.005  0.323E-02  0.956E-02  0.108E-02  0.319E-02  0.107E-02  0.318E-02  0.108E-02  0.319E-02
  10.015  0.369E-02  0.878E-02  0.123E-02  0.293E-02  0.123E-02  0.292E-02  0.123E-02  0.293E-02
  10.025  0.470E-02  0.800E-02  0.157E-02  0.267E-02  0.156E-02  0.266E-02  0.157E-02  0.267E-02
  10.035  0.640E-02  0.727E-02  0.214E-02  0.242E-02  0.213E-02  0.242E-02  0.214E-02  0.242E-02
  10.045  0.895E-02  0.669E-02  0.299E-02  0.223E-02  0.298E-02  0.223E-02  0.299E-02  0.223E-02
  10.055  0.125E-01  0.639E-02  0.417E-02  0.213E-02  0.416E-02  0.213E-02  0.417E-02  0.213E-02
  10.065  0.171E-01  0.651E-02  0.572E-02  0.217E-02  0.571E-02  0.217E-02  0.572E-02  0.217E-02
  10.075  0.230E-01  0.723E-02  0.766E-02  0.241E-02  0.766E-02  0.241E-02  0.766E-02  0.241E-02
  10.085  0.301E-01  0.871E-02  0.100E-01  0.290E-02  0.100E-01  0.290E-02  0.100E-01  0.290E-02
  10.095  0.384E-01  0.111E-01  0.128E-01  0.370E-02  0.128E-01  0.370E-02  0.128E-01  0.370E-02
  10.105  0.478E-01  0.146E-01  0.159E-01  0.486E-02  0.159E-01  0.485E-02  0.159E-01  0.486E-02
  10.115  0.583E-01  0.192E-01  0.194E-01  0.640E-02  0.194E-01  0.639E-02  0.194E-01  0.640E-02
  10.125  0.696E-01  0.251E-01  0.232E-01  0.836E-02  0.232E-01  0.835E-02  0.232E-01  0.836E-02
  10.135  0.814E-01  0.322E-01  0.271E-01  0.107E-01  0.271E-01  0.107E-01  0.271E-01  0.107E-01
  10.145  0.935E-01  0.406E-01  0.312E-01  0.135E-01  0.311E-01  0.135E-01  0.312E-01  0.135E-01
  10.155  0.105E+00  0.500E-01  0.351E-01  0.167E-01  0.351E-01  0.167E-01  0.351E-01  0.167E-01
  10.165  0.117E+00  0.605E-01  0.390E-01  0.202E-01  0.389E-01  0.202E-01  0.390E-01  0.202E-01
  10.175  0.127E+00  0.717E-01  0.425E-01  0.239E-01  0.425E-01  0.239E-01  0.425E-01  0.239E-01
  10.185  0.137E+00  0.834E-01  0.456E-01  0.278E-01  0.456E-01  0.278E-01  0.456E-01  0.278E-01
  10.195  0.144E+00  0.953E-01  0.482E-01  0.318E-01  0.481E-01  0.317E-01  0.482E-01  0.318E-01
  10.205  0.150E+00  0.107E+00  0.501E-01  0.357E-01  0.501E-01  0.356E-01  0.501E-01  0.357E-01
  10.215  0.154E+00  0.118E+00  0.514E-01  0.394E-01  0.514E-01  0.393E-01  0.514E-01  0.394E-01
  10.225  0.156E+00  0.128E+00  0.520E-01  0.428E-01  0.519E-01  0.428E-01  0.520E-01  0.428E-01
  10.235  0.155E+00  0.137E+00  0.518E-01  0.458E-01  0.517E-01  0.457E-01  0.518E-01  0.458E-01
  10.245  0.152E+00  0.145E+00  0.508E-01  0.482E-01  0.508E-01  0.482E-01  0.508E-01  0.482E-01
  10.255  0.148E+00  0.150E+00  0.492E-01  0.501E-01  0.492E-01  0.501E-01  0.492E-01  0.501E-01
  10.265  0.141E+00  0.154E+00  0.470E-01  0.513E-01  0.470E-01  0.513E-01  0.470E-01  0.513E-01
  10.275  0.133E+00  0.155E+00  0.443E-01  0.518E-01  0.443E-01  0.517E-01  0.443E-01  0.518E-01
  10.285  0.124E+00  0.155E+00  0.412E-01  0.515E-01  0.412E-01  0.515E-01  0.412E-01  0.515E-01
  10.295  0.114E+00  0.152E+00  0.379E-01  0.506E-01  0.379E-01  0.506E-01  0.379E-01  0.506E-01
  10.305  0.103E+00  0.147E+00  0.345E-01  0.490E-01  0.345E-01  0.490E-01  0.345E-01  0.490E-01
  10.315  0.935E-01  0.140E+00  0.312E-01  0.468E-01  0.312E-01  0.468E-01  0.312E-01  0.468E-01
  10.325  0.842E-01  0.132E+00  0.281E-01  0.441E-01  0.281E-01  0.441E-01  0.281E-01  0.441E-01
  10.335  0.760E-01  0.123E+00  0.253E-01  0.411E-01  0.253E-01  0.411E-01  0.253E-01  0.411E-01
  10.345  0.693E-01  0.114E+00  0.231E-01  0.379E-01  0.231E-01  0.378E-01  0.231E-01  0.379E-01
  10.355  0.642E-01  0.104E+00  0.214E-01  0.345E-01  0.214E-01  0.345E-01  0.214E-01  0.345E-01
  10.365  0.610E-01  0.939E-01  0.203E-01  0.313E-01  0.203E-01  0.313E-01  0.203E-01  0.313E-01
  10.375  0.598E-01  0.848E-01  0.199E-01  0.283E-01  0.199E-01  0.282E-01  0.199E-01  0.283E-01
  10.385  0.606E-01  0.767E-01  0.202E-01  0.256E-01  0.202E-01  0.256E-01  0.202E-01  0.256E-01
  10.395  0.632E-01  0.701E-01  0.211E-01  0.234E-01  0.211E-01  0.234E-01  0.211E-01  0.234E-01
  10.405  0.674E-01  0.651E-01  0.225E-01  0.217E-01  0.225E-01  0.217E-01  0.225E-01  0.217E-01
  10.415  0.729E-01  0.620E-01  0.243E-01  0.207E-01  0.243E-01  0.206E-01  0.243E-01  0.207E-01
  10.425  0.793E-01  0.608E-01  0.264E-01  0.203E-01  0.264E-01  0.203E-01  0.264E-01  0.203E-01
  10.435  0.862E-01  0.615E-01  0.287E-01  0.205E-01  0.287E-01  0.205E-01  0.287E-01  0.205E-01
  10.445  0.931E-01  0.641E-01  0.310E-01  0.214E-01  0.310E-01  0.214E-01  0.310E-01  0.214E-01
  10.455  0.996E-01  0.682E-01  0.332E-01  0.227E-01  0.332E-01  0.227E-01  0.332E-01  0.227E-01
  10.465  0.105E+00  0.737E-01  0.351E-01  0.246E-01  0.351E-01  0.245E-01  0.351E-01  0.246E-01
  10.475  0.110E+00  0.800E-01  0.366E-01  0.267E-01  0.366E-01  0.267E-01  0.366E-01  0.267E-01
  10.485  0.113E+00  0.869E-01  0.377E-01  0.290E-01  0.376E-01  0.290E-01  0.377E-01  0.290E-01
  10.495  0.114E+00  0.939E-01  0.382E-01  0.313E-01  0.381E-01  0.313E-01  0.382E-01  0.313E-01
  10.505  0.114E+00  0.100E+00  0.381E-01  0.335E-01  0.381E-01  0.335E-01  0.381E-01  0.335E-01
  10.515  0.113E+00  0.106E+00  0.375E-01  0.354E-01  0.375E-01  0.354E-01  0.375E-01  0.354E-01
  10.525  0.109E+00  0.111E+00  0.364E-01  0.370E-01  0.364E-01  0.370E-01  0.364E-01  0.370E-01
  10.535  0.105E+00  0.114E+00  0.350E-01  0.381E-01  0.350E-01  0.381E-01  0.350E-01  0.381E-01
  10.545  0.996E-01  0.116E+00  0.332E-01  0.387E-01  0.332E-01  0.387E-01  0.332E-01  0.387E-01
  10.555  0.939E-01  0.116E+00  0.313E-01  0.388E-01  0.313E-01  0.388E-01  0.313E-01  0.388E-01
  10.565  0.880E-01  0.115E+00  0.293E-01  0.383E-01  0.293E-01  0.383E-01  0.293E-01  0.383E-01
  10.575  0.825E-01  0.112E+00  0.275E-01  0.374E-01  0.275E-01  0.374E-01  0.275E-01  0.374E-01
  10.585  0.777E-01  0.108E+00  0.259E-01  0.360E-01  0.259E-01  0.360E-01  0.259E-01  0.360E-01
  10.595  0.738E-01  0.103E+00  0.246E-01  0.344E-01  0.246E-01  0.344E-01  0.246E-01  0.344E-01
  10.605  0.713E-01  0.978E-01  0.238E-01  0.326E-01  0.238E-01  0.326E-01  0.238E-01  0.326E-01
  10.615  0.701E-01  0.922E-01  0.234E-01  0.307E-01  0.234E-01  0.307E-01  0.234E-01  0.307E-01
  10.625  0.704E-01  0.868E-01  0.235E-01  0.289E-01  0.235E-01  0.289E-01  0.235E-01  0.289E-01
  10.635  0.721E-01  0.820E-01  0.240E-01  0.273E-01  0.240E-01  0.273E-01  0.240E-01  0.273E-01
  10.645  0.751E-01  0.780E-01  0.250E-01  0.260E-01  0.250E-01  0.260E-01  0.250E-01  0.260E-01
  10.655  0.791E-01  0.751E-01  0.264E-01  0.251E-01  0.263E-01  0.250E-01  0.264E-01  0.251E-01
  10.665  0.838E-01  0.735E-01  0.279E-01  0.245E-01  0.279E-01  0.245E-01  0.279E-01  0.245E-01
  10.675  0.890E-01  0.731E-01  0.297E-01  0.244E-01  0.296E-01  0.244E-01  0.297E-01  0.244E-01
  10.685  0.942E-01  0.740E-01  0.314E-01  0.247E-01  0.314E-01  0.247E-01  0.314E-01  0.247E-01
  10.695  0.991E-01  0.761E-01  0.330E-01  0.254E-01  0.330E-01  0.253E-01  0.330E-01  0.254E-01
  10.705  0.103E+00  0.790E-01  0.345E-01  0.263E-01  0.345E-01  0.263E-01  0.345E-01  0.263E-01
  10.715  0.107E+00  0.827E-01  0.356E-01  0.276E-01  0.356E-01  0.275E-01  0.356E-01  0.276E-01
  10.725  0.109E+00  0.867E-01  0.364E-01  0.289E-01  0.364E-01  0.289E-01  0.364E-01  0.289E-01
  10.735  0.110E+00  0.909E-01  0.368E-01  0.303E-01  0.368E-01  0.303E-01  0.368E-01  0.303E-01
  10.745  0.110E+00  0.949E-01  0.368E-01  0.316E-01  0.367E-01  0.316E-01  0.368E-01  0.316E-01
  10.755  0.109E+00  0.984E-01  0.363E-01  0.328E-01  0.363E-01  0.328E-01  0.363E-01  0.328E-01
  10.765  0.106E+00  0.101E+00  0.354E-01  0.337E-01  0.354E-01  0.337E-01  0.354E-01  0.337E-01
  10.775  0.102E+00  0.103E+00  0.341E-01  0.344E-01  0.341E-01  0.344E-01  0.341E-01  0.344E-01
  10.785  0.977E-01  0.104E+00  0.326E-01  0.347E-01  0.326E-01  0.347E-01  0.326E-01  0.347E-01
  10.795  0.923E-01  0.104E+00  0.308E-01  0.347E-01  0.308E-01  0.346E-01  0.308E-01  0.347E-01
  10.805  0.864E-01  0.103E+00  0.288E-01  0.343E-01  0.288E-01  0.342E-01  0.288E-01  0.343E-01
  10.815  0.801E-01  0.101E+00  0.267E-01  0.335E-01  0.267E-01  0.335E-01  0.267E-01  0.335E-01
  10.825  0.738E-01  0.975E-01  0.246E-01  0.325E-01  0.246E-01  0.325E-01  0.246E-01  0.325E-01
  10.835  0.675E-01  0.937E-01  0.225E-01  0.312E-01  0.225E-01  0.312E-01  0.225E-01  0.312E-01
  10.845  0.615E-01  0.893E-01  0.205E-01  0.298E-01  0.205E-01  0.298E-01  0.205E-01  0.298E-01
  10.855  0.558E-01  0.845E-01  0.186E-01  0.282E-01  0.186E-01  0.282E-01  0.186E-01  0.282E-01
  10.865  0.506E-01  0.795E-01  0.169E-01  0.265E-01  0.168E-01  0.265E-01  0.169E-01  0.265E-01
  10.875  0.459E-01  0.743E-01  0.153E-01  0.248E-01  0.153E-01  0.248E-01  0.153E-01  0.248E-01
  10.885  0.418E-01  0.693E-01  0.139E-01  0.231E-01  0.139E-01  0.231E-01  0.139E-01  0.231E-01
  10.895  0.382E-01  0.644E-01  0.127E-01  0.215E-01  0.127E-01  0.214E-01  0.127E-01  0.215E-01
  10.905  0.352E-01  0.597E-01  0.117E-01  0.199E-01  0.117E-01  0.199E-01  0.117E-01  0.199E-01
  10.915  0.328E-01  0.554E-01  0.109E-01  0.185E-01  0.109E-01  0.185E-01  0.109E-01  0.185E-01
  10.925  0.308E-01  0.515E-01  0.103E-01  0.172E-01  0.103E-01  0.172E-01  0.103E-01  0.172E-01
  10.935  0.292E-01  0.479E-01  0.974E-02  0.160E-01  0.975E-02  0.160E-01  0.974E-02  0.160E-01
  10.945  0.280E-01  0.448E-01  0.934E-02  0.149E-01  0.936E-02  0.149E-01  0.934E-02  0.149E-01
  10.955  0.271E-01  0.421E-01  0.904E-02  0.140E-01  0.905E-02  0.140E-01  0.904E-02  0.140E-01
  10.965  0.264E-01  0.397E-01  0.880E-02  0.132E-01  0.881E-02  0.132E-01  0.880E-02  0.132E-01
  10.975  0.258E-01  0.376E-01  0.860E-02  0.125E-01  0.862E-02  0.125E-01  0.860E-02  0.125E-01
  10.985  0.253E-01  0.359E-01  0.843E-02  0.120E-01  0.845E-02  0.120E-01  0.843E-02  0.120E-01
  10.995  0.248E-01  0.344E-01  0.827E-02  0.115E-01  0.829E-02  0.115E-01  0.827E-02  0.115E-01
  11.005  0.243E-01  0.331E-01  0.811E-02  0.110E-01  0.812E-02  0.111E-01  0.811E-02  0.110E-01
  11.015  0.238E-01  0.320E-01  0.794E-02  0.107E-01  0.795E-02  0.107E-01  0.794E-02  0.107E-01
  11.025  0.233E-01  0.311E-01  0.776E-02  0.104E-01  0.777E-02  0.104E-01  0.776E-02  0.104E-01
  11.035  0.228E-01  0.302E-01  0.760E-02  0.101E-01  0.761E-02  0.101E-01  0.760E-02  0.101E-01
  11.045  0.224E-01  0.294E-01  0.746E-02  0.979E-02  0.747E-02  0.980E-02  0.746E-02  0.979E-02
  11.055  0.221E-01  0.286E-01  0.738E-02  0.952E-02  0.738E-02  0.953E-02  0.738E-02  0.952E-02
  11.065  0.221E-01  0.278E-01  0.737E-02  0.925E-02  0.736E-02  0.926E-02  0.737E-02  0.925E-02
  11.075  0.224E-01  0.269E-01  0.748E-02  0.898E-02  0.746E-02  0.899E-02  0.748E-02  0.898E-02
  11.085  0.232E-01  0.261E-01  0.772E-02  0.871E-02  0.770E-02  0.872E-02  0.772E-02  0.871E-02
  11.095  0.244E-01  0.254E-01  0.814E-02  0.845E-02  0.811E-02  0.846E-02  0.814E-02  0.845E-02
  11.105  0.262E-01  0.247E-01  0.874E-02  0.823E-02  0.871E-02  0.823E-02  0.874E-02  0.823E-02
  11.115  0.286E-01  0.242E-01  0.954E-02  0.806E-02  0.951E-02  0.806E-02  0.954E-02  0.806E-02
  11.125  0.316E-01  0.239E-01  0.105E-01  0.797E-02  0.105E-01  0.796E-02  0.105E-01  0.797E-02
  11.135  0.352E-01  0.240E-01  0.117E-01  0.799E-02  0.117E-01  0.798E-02  0.117E-01  0.799E-02
  11.145  0.393E-01  0.244E-01  0.131E-01  0.815E-02  0.131E-01  0.813E-02  0.131E-01  0.815E-02
  11.155  0.437E-01  0.254E-01  0.146E-01  0.848E-02  0.145E-01  0.846E-02  0.146E-01  0.848E-02
  11.165  0.484E-01  0.270E-01  0.162E-01  0.901E-02  0.161E-01  0.898E-02  0.162E-01  0.901E-02
  11.175  0.533E-01  0.292E-01  0.178E-01  0.974E-02  0.177E-01  0.971E-02  0.178E-01  0.974E-02
  11.185  0.580E-01  0.320E-01  0.193E-01  0.107E-01  0.193E-01  0.106E-01  0.193E-01  0.107E-01
  11.195  0.624E-01  0.355E-01  0.208E-01  0.118E-01  0.208E-01  0.118E-01  0.208E-01  0.118E-01
  11.205  0.664E-01  0.395E-01  0.222E-01  0.132E-01  0.221E-01  0.131E-01  0.222E-01  0.132E-01
  11.215  0.699E-01  0.440E-01  0.233E-01  0.147E-01  0.233E-01  0.146E-01  0.233E-01  0.147E-01
  11.225  0.726E-01  0.487E-01  0.242E-01  0.163E-01  0.242E-01  0.162E-01  0.242E-01  0.163E-01
  11.235  0.745E-01  0.536E-01  0.248E-01  0.179E-01  0.248E-01  0.178E-01  0.248E-01  0.179E-01
  11.245  0.756E-01  0.584E-01  0.252E-01  0.195E-01  0.252E-01  0.194E-01  0.252E-01  0.195E-01
  11.255  0.759E-01  0.629E-01  0.253E-01  0.210E-01  0.253E-01  0.209E-01  0.253E-01  0.210E-01
  11.265  0.754E-01  0.670E-01  0.251E-01  0.223E-01  0.252E-01  0.223E-01  0.251E-01  0.223E-01
  11.275  0.743E-01  0.704E-01  0.248E-01  0.235E-01  0.248E-01  0.234E-01  0.248E-01  0.235E-01
  11.285  0.726E-01  0.730E-01  0.242E-01  0.243E-01  0.242E-01  0.243E-01  0.242E-01  0.243E-01
  11.295  0.705E-01  0.747E-01  0.235E-01  0.249E-01  0.235E-01  0.249E-01  0.235E-01  0.249E-01
  11.305  0.681E-01  0.755E-01  0.227E-01  0.252E-01  0.227E-01  0.252E-01  0.227E-01  0.252E-01
  11.315  0.655E-01  0.754E-01  0.218E-01  0.251E-01  0.219E-01  0.252E-01  0.218E-01  0.251E-01
  11.325  0.629E-01  0.744E-01  0.209E-01  0.248E-01  0.210E-01  0.248E-01  0.209E-01  0.248E-01
  11.335  0.603E-01  0.726E-01  0.201E-01  0.242E-01  0.201E-01  0.242E-01  0.201E-01  0.242E-01
  11.345  0.577E-01  0.703E-01  0.192E-01  0.234E-01  0.193E-01  0.235E-01  0.192E-01  0.234E-01
  11.355  0.553E-01  0.674E-01  0.184E-01  0.225E-01  0.185E-01  0.225E-01  0.184E-01  0.225E-01
  11.365  0.530E-01  0.644E-01  0.176E-01  0.214E-01  0.177E-01  0.215E-01  0.176E-01  0.214E-01
  11.375  0.507E-01  0.612E-01  0.169E-01  0.204E-01  0.169E-01  0.205E-01  0.169E-01  0.204E-01
  11.385  0.484E-01  0.582E-01  0.161E-01  0.194E-01  0.162E-01  0.195E-01  0.161E-01  0.194E-01
  11.395  0.461E-01  0.554E-01  0.154E-01  0.184E-01  0.154E-01  0.185E-01  0.154E-01  0.184E-01
  11.405  0.437E-01  0.529E-01  0.146E-01  0.176E-01  0.146E-01  0.177E-01  0.146E-01  0.176E-01
  11.415  0.412E-01  0.508E-01  0.137E-01  0.169E-01  0.137E-01  0.170E-01  0.137E-01  0.169E-01
  11.425  0.385E-01  0.491E-01  0.128E-01  0.164E-01  0.128E-01  0.164E-01  0.128E-01  0.164E-01
  11.435  0.355E-01  0.478E-01  0.118E-01  0.159E-01  0.118E-01  0.160E-01  0.118E-01  0.159E-01
  11.445  0.324E-01  0.467E-01  0.108E-01  0.156E-01  0.108E-01  0.156E-01  0.108E-01  0.156E-01
  11.455  0.291E-01  0.458E-01  0.972E-02  0.153E-01  0.970E-02  0.153E-01  0.972E-02  0.153E-01
  11.465  0.257E-01  0.450E-01  0.859E-02  0.150E-01  0.856E-02  0.150E-01  0.859E-02  0.150E-01
  11.475  0.223E-01  0.442E-01  0.744E-02  0.147E-01  0.741E-02  0.147E-01  0.744E-02  0.147E-01
  11.485  0.189E-01  0.431E-01  0.631E-02  0.144E-01  0.628E-02  0.144E-01  0.631E-02  0.144E-01
  11.495  0.156E-01  0.418E-01  0.521E-02  0.139E-01  0.518E-02  0.139E-01  0.521E-02  0.139E-01
  11.505  0.125E-01  0.402E-01  0.418E-02  0.134E-01  0.415E-02  0.134E-01  0.418E-02  0.134E-01
  11.515  0.971E-02  0.382E-01  0.324E-02  0.127E-01  0.322E-02  0.127E-01  0.324E-02  0.127E-01
  11.525  0.727E-02  0.358E-01  0.243E-02  0.119E-01  0.241E-02  0.119E-01  0.243E-02  0.119E-01
  11.535  0.527E-02  0.330E-01  0.176E-02  0.110E-01  0.175E-02  0.110E-01  0.176E-02  0.110E-01
  11.545  0.374E-02  0.299E-01  0.125E-02  0.996E-02  0.124E-02  0.993E-02  0.125E-02  0.996E-02
  11.555  0.273E-02  0.265E-01  0.913E-03  0.885E-02  0.907E-03  0.882E-02  0.913E-03  0.885E-02
  11.565  0.227E-02  0.230E-01  0.756E-03  0.769E-02  0.755E-03  0.765E-02  0.756E-03  0.769E-02
  11.575  0.236E-02  0.195E-01  0.784E-03  0.652E-02  0.789E-03  0.648E-02  0.784E-03  0.652E-02
  11.585  0.301E-02  0.161E-01  0.998E-03  0.537E-02  0.101E-02  0.534E-02  0.998E-03  0.537E-02
  11.595  0.420E-02  0.128E-01  0.140E-02  0.429E-02  0.141E-02  0.426E-02  0.140E-02  0.429E-02
  11.605  0.594E-02  0.990E-02  0.197E-02  0.331E-02  0.200E-02  0.328E-02  0.197E-02  0.331E-02
  11.615  0.817E-02  0.735E-02  0.271E-02  0.246E-02  0.275E-02  0.244E-02  0.271E-02  0.246E-02
  11.625  0.109E-01  0.529E-02  0.361E-02  0.177E-02  0.365E-02  0.175E-02  0.361E-02  0.177E-02
  11.635  0.140E-01  0.376E-02  0.466E-02  0.126E-02  0.470E-02  0.125E-02  0.466E-02  0.126E-02
  11.645  0.175E-01  0.282E-02  0.582E-02  0.943E-03  0.587E-02  0.936E-03  0.582E-02  0.943E-03
  11.655  0.213E-01  0.250E-02  0.709E-02  0.834E-03  0.715E-02  0.833E-03  0.709E-02  0.834E-03
  11.665  0.254E-01  0.281E-02  0.844E-02  0.934E-03  0.850E-02  0.941E-03  0.844E-02  0.934E-03
  11.675  0.296E-01  0.375E-02  0.984E-02  0.125E-02  0.991E-02  0.126E-02  0.984E-02  0.125E-02
  11.685  0.339E-01  0.531E-02  0.113E-01  0.176E-02  0.113E-01  0.178E-02  0.113E-01  0.176E-02
  11.695  0.381E-01  0.745E-02  0.127E-01  0.247E-02  0.128E-01  0.250E-02  0.127E-01  0.247E-02
  11.705  0.423E-01  0.101E-01  0.141E-01  0.337E-02  0.141E-01  0.340E-02  0.141E-01  0.337E-02
  11.715  0.462E-01  0.133E-01  0.154E-01  0.443E-02  0.154E-01  0.447E-02  0.154E-01  0.443E-02
  11.725  0.498E-01  0.170E-01  0.166E-01  0.564E-02  0.167E-01  0.569E-02  0.166E-01  0.564E-02
  11.735  0.531E-01  0.209E-01  0.177E-01  0.696E-02  0.177E-01  0.702E-02  0.177E-01  0.696E-02
  11.745  0.559E-01  0.252E-01  0.186E-01  0.838E-02  0.187E-01  0.844E-02  0.186E-01  0.838E-02
  11.755  0.582E-01  0.296E-01  0.194E-01  0.985E-02  0.194E-01  0.992E-02  0.194E-01  0.985E-02
  11.765  0.600E-01  0.341E-01  0.200E-01  0.114E-01  0.200E-01  0.114E-01  0.200E-01  0.114E-01
  11.775  0.613E-01  0.386E-01  0.204E-01  0.128E-01  0.204E-01  0.129E-01  0.204E-01  0.128E-01
  11.785  0.620E-01  0.430E-01  0.206E-01  0.143E-01  0.207E-01  0.144E-01  0.206E-01  0.143E-01
  11.795  0.621E-01  0.471E-01  0.207E-01  0.157E-01  0.207E-01  0.157E-01  0.207E-01  0.157E-01
  11.805  0.617E-01  0.509E-01  0.206E-01  0.169E-01  0.206E-01  0.170E-01  0.206E-01  0.169E-01
  11.815  0.608E-01  0.542E-01  0.203E-01  0.181E-01  0.202E-01  0.181E-01  0.203E-01  0.181E-01
  11.825  0.594E-01  0.571E-01  0.198E-01  0.190E-01  0.198E-01  0.191E-01  0.198E-01  0.190E-01
  11.835  0.576E-01  0.595E-01  0.192E-01  0.198E-01  0.192E-01  0.199E-01  0.192E-01  0.198E-01
  11.845  0.554E-01  0.613E-01  0.185E-01  0.204E-01  0.184E-01  0.205E-01  0.185E-01  0.204E-01
  11.855  0.529E-01  0.626E-01  0.177E-01  0.209E-01  0.176E-01  0.209E-01  0.177E-01  0.209E-01
  11.865  0.503E-01  0.633E-01  0.168E-01  0.211E-01  0.167E-01  0.211E-01  0.168E-01  0.211E-01
  11.875  0.474E-01  0.634E-01  0.158E-01  0.211E-01  0.158E-01  0.211E-01  0.158E-01  0.211E-01
  11.885  0.445E-01  0.630E-01  0.149E-01  0.210E-01  0.148E-01  0.210E-01  0.149E-01  0.210E-01
  11.895  0.417E-01  0.621E-01  0.139E-01  0.207E-01  0.139E-01  0.207E-01  0.139E-01  0.207E-01
  11.905  0.390E-01  0.608E-01  0.130E-01  0.203E-01  0.130E-01  0.202E-01  0.130E-01  0.203E-01
  11.915  0.366E-01  0.590E-01  0.122E-01  0.197E-01  0.122E-01  0.196E-01  0.122E-01  0.197E-01
  11.925  0.346E-01  0.569E-01  0.115E-01  0.190E-01  0.115E-01  0.189E-01  0.115E-01  0.190E-01
  11.935  0.330E-01  0.545E-01  0.110E-01  0.182E-01  0.110E-01  0.181E-01  0.110E-01  0.182E-01
  11.945  0.320E-01  0.518E-01  0.107E-01  0.173E-01  0.107E-01  0.172E-01  0.107E-01  0.173E-01
  11.955  0.318E-01  0.490E-01  0.106E-01  0.164E-01  0.106E-01  0.163E-01  0.106E-01  0.164E-01
  11.965  0.322E-01  0.461E-01  0.107E-01  0.154E-01  0.107E-01  0.153E-01  0.107E-01  0.154E-01
  11.975  0.334E-01  0.432E-01  0.111E-01  0.144E-01  0.112E-01  0.144E-01  0.111E-01  0.144E-01
  11.985  0.355E-01  0.403E-01  0.118E-01  0.135E-01  0.118E-01  0.134E-01  0.118E-01  0.135E-01
  11.995  0.383E-01  0.377E-01  0.127E-01  0.126E-01  0.128E-01  0.125E-01  0.127E-01  0.126E-01
  12.005  0.418E-01  0.353E-01  0.139E-01  0.118E-01  0.140E-01  0.118E-01  0.139E-01  0.118E-01
  12.015  0.459E-01  0.334E-01  0.153E-01  0.111E-01  0.153E-01  0.111E-01  0.153E-01  0.111E-01
  12.025  0.506E-01  0.320E-01  0.168E-01  0.107E-01  0.169E-01  0.107E-01  0.168E-01  0.107E-01
  12.035  0.556E-01  0.312E-01  0.185E-01  0.104E-01  0.186E-01  0.104E-01  0.185E-01  0.104E-01
  12.045  0.608E-01  0.312E-01  0.203E-01  0.104E-01  0.203E-01  0.104E-01  0.203E-01  0.104E-01
  12.055  0.660E-01  0.319E-01  0.220E-01  0.106E-01  0.220E-01  0.107E-01  0.220E-01  0.106E-01
  12.065  0.711E-01  0.335E-01  0.237E-01  0.112E-01  0.237E-01  0.112E-01  0.237E-01  0.112E-01
  12.075  0.758E-01  0.359E-01  0.253E-01  0.120E-01  0.253E-01  0.120E-01  0.253E-01  0.120E-01
  12.085  0.800E-01  0.391E-01  0.267E-01  0.130E-01  0.267E-01  0.131E-01  0.267E-01  0.130E-01
  12.095  0.835E-01  0.431E-01  0.278E-01  0.143E-01  0.279E-01  0.144E-01  0.278E-01  0.143E-01
  12.105  0.862E-01  0.477E-01  0.287E-01  0.159E-01  0.287E-01  0.159E-01  0.287E-01  0.159E-01
  12.115  0.879E-01  0.528E-01  0.293E-01  0.176E-01  0.293E-01  0.176E-01  0.293E-01  0.176E-01
  12.125  0.887E-01  0.582E-01  0.295E-01  0.194E-01  0.296E-01  0.195E-01  0.295E-01  0.194E-01
  12.135  0.883E-01  0.639E-01  0.294E-01  0.213E-01  0.294E-01  0.213E-01  0.294E-01  0.213E-01
  12.145  0.869E-01  0.694E-01  0.290E-01  0.231E-01  0.290E-01  0.232E-01  0.290E-01  0.231E-01
  12.155  0.845E-01  0.748E-01  0.282E-01  0.249E-01  0.282E-01  0.250E-01  0.282E-01  0.249E-01
  12.165  0.812E-01  0.796E-01  0.271E-01  0.265E-01  0.270E-01  0.266E-01  0.271E-01  0.265E-01
  12.175  0.770E-01  0.839E-01  0.257E-01  0.280E-01  0.256E-01  0.280E-01  0.257E-01  0.280E-01
  12.185  0.721E-01  0.873E-01  0.240E-01  0.291E-01  0.240E-01  0.291E-01  0.240E-01  0.291E-01
  12.195  0.666E-01  0.899E-01  0.222E-01  0.299E-01  0.222E-01  0.300E-01  0.222E-01  0.299E-01
  12.205  0.608E-01  0.913E-01  0.203E-01  0.304E-01  0.203E-01  0.304E-01  0.203E-01  0.304E-01
  12.215  0.549E-01  0.917E-01  0.183E-01  0.305E-01  0.183E-01  0.306E-01  0.183E-01  0.305E-01
  12.225  0.490E-01  0.909E-01  0.163E-01  0.303E-01  0.163E-01  0.303E-01  0.163E-01  0.303E-01
  12.235  0.434E-01  0.889E-01  0.145E-01  0.296E-01  0.145E-01  0.296E-01  0.145E-01  0.296E-01
  12.245  0.381E-01  0.860E-01  0.127E-01  0.287E-01  0.127E-01  0.287E-01  0.127E-01  0.287E-01
  12.255  0.335E-01  0.820E-01  0.112E-01  0.273E-01  0.112E-01  0.273E-01  0.112E-01  0.273E-01
  12.265  0.296E-01  0.772E-01  0.986E-02  0.257E-01  0.986E-02  0.257E-01  0.986E-02  0.257E-01
  12.275  0.265E-01  0.718E-01  0.882E-02  0.239E-01  0.882E-02  0.239E-01  0.882E-02  0.239E-01
  12.285  0.242E-01  0.658E-01  0.807E-02  0.219E-01  0.808E-02  0.219E-01  0.807E-02  0.219E-01
  12.295  0.229E-01  0.596E-01  0.763E-02  0.199E-01  0.764E-02  0.199E-01  0.763E-02  0.199E-01
  12.305  0.225E-01  0.533E-01  0.749E-02  0.178E-01  0.750E-02  0.178E-01  0.749E-02  0.178E-01
  12.315  0.229E-01  0.472E-01  0.764E-02  0.157E-01  0.765E-02  0.157E-01  0.764E-02  0.157E-01
  12.325  0.242E-01  0.413E-01  0.805E-02  0.138E-01  0.807E-02  0.138E-01  0.805E-02  0.138E-01
  12.335  0.261E-01  0.361E-01  0.868E-02  0.120E-01  0.870E-02  0.120E-01  0.868E-02  0.120E-01
  12.345  0.285E-01  0.314E-01  0.950E-02  0.105E-01  0.952E-02  0.105E-01  0.950E-02  0.105E-01
  12.355  0.314E-01  0.277E-01  0.104E-01  0.922E-02  0.105E-01  0.921E-02  0.104E-01  0.922E-02
  12.365  0.345E-01  0.248E-01  0.115E-01  0.826E-02  0.115E-01  0.825E-02  0.115E-01  0.826E-02
  12.375  0.377E-01  0.228E-01  0.125E-01  0.761E-02  0.126E-01  0.761E-02  0.125E-01  0.761E-02
  12.385  0.408E-01  0.219E-01  0.136E-01  0.729E-02  0.136E-01  0.729E-02  0.136E-01  0.729E-02
  12.395  0.437E-01  0.218E-01  0.146E-01  0.728E-02  0.146E-01  0.729E-02  0.146E-01  0.728E-02
  12.405  0.464E-01  0.227E-01  0.154E-01  0.756E-02  0.155E-01  0.757E-02  0.154E-01  0.756E-02
  12.415  0.486E-01  0.243E-01  0.162E-01  0.810E-02  0.162E-01  0.812E-02  0.162E-01  0.810E-02
  12.425  0.503E-01  0.266E-01  0.168E-01  0.885E-02  0.168E-01  0.888E-02  0.168E-01  0.885E-02
  12.435  0.515E-01  0.294E-01  0.172E-01  0.978E-02  0.172E-01  0.980E-02  0.172E-01  0.978E-02
  12.445  0.522E-01  0.325E-01  0.174E-01  0.108E-01  0.174E-01  0.108E-01  0.174E-01  0.108E-01
  12.455  0.523E-01  0.357E-01  0.174E-01  0.119E-01  0.174E-01  0.119E-01  0.174E-01  0.119E-01
  12.465  0.519E-01  0.390E-01  0.173E-01  0.130E-01  0.173E-01  0.130E-01  0.173E-01  0.130E-01
  12.475  0.511E-01  0.421E-01  0.170E-01  0.140E-01  0.170E-01  0.140E-01  0.170E-01  0.140E-01
  12.485  0.499E-01  0.449E-01  0.166E-01  0.150E-01  0.166E-01  0.150E-01  0.166E-01  0.150E-01
  12.495  0.484E-01  0.473E-01  0.161E-01  0.158E-01  0.161E-01  0.158E-01  0.161E-01  0.158E-01
  12.505  0.466E-01  0.492E-01  0.156E-01  0.164E-01  0.155E-01  0.164E-01  0.156E-01  0.164E-01
  12.515  0.447E-01  0.506E-01  0.149E-01  0.168E-01  0.149E-01  0.169E-01  0.149E-01  0.168E-01
  12.525  0.426E-01  0.513E-01  0.142E-01  0.171E-01  0.142E-01  0.171E-01  0.142E-01  0.171E-01
  12.535  0.406E-01  0.516E-01  0.135E-01  0.172E-01  0.135E-01  0.172E-01  0.135E-01  0.172E-01
  12.545  0.385E-01  0.513E-01  0.129E-01  0.171E-01  0.128E-01  0.171E-01  0.129E-01  0.171E-01
  12.555  0.365E-01  0.506E-01  0.122E-01  0.169E-01  0.121E-01  0.168E-01  0.122E-01  0.169E-01
  12.565  0.346E-01  0.494E-01  0.116E-01  0.165E-01  0.115E-01  0.165E-01  0.116E-01  0.165E-01
  12.575  0.329E-01  0.480E-01  0.110E-01  0.160E-01  0.109E-01  0.160E-01  0.110E-01  0.160E-01
  12.585  0.313E-01  0.463E-01  0.105E-01  0.155E-01  0.104E-01  0.154E-01  0.105E-01  0.155E-01
  12.595  0.300E-01  0.445E-01  0.999E-02  0.149E-01  0.998E-02  0.148E-01  0.999E-02  0.149E-01
  12.605  0.289E-01  0.426E-01  0.962E-02  0.142E-01  0.961E-02  0.142E-01  0.962E-02  0.142E-01
  12.615  0.280E-01  0.408E-01  0.934E-02  0.136E-01  0.934E-02  0.136E-01  0.934E-02  0.136E-01
  12.625  0.275E-01  0.390E-01  0.918E-02  0.130E-01  0.918E-02  0.130E-01  0.918E-02  0.130E-01
  12.635  0.274E-01  0.372E-01  0.914E-02  0.124E-01  0.916E-02  0.124E-01  0.914E-02  0.124E-01
  12.645  0.278E-01  0.356E-01  0.926E-02  0.119E-01  0.928E-02  0.118E-01  0.926E-02  0.119E-01
  12.655  0.286E-01  0.341E-01  0.954E-02  0.114E-01  0.956E-02  0.114E-01  0.954E-02  0.114E-01
  12.665  0.301E-01  0.328E-01  0.100E-01  0.110E-01  0.100E-01  0.109E-01  0.100E-01  0.110E-01
  12.675  0.321E-01  0.317E-01  0.107E-01  0.106E-01  0.107E-01  0.105E-01  0.107E-01  0.106E-01
  12.685  0.349E-01  0.307E-01  0.116E-01  0.103E-01  0.116E-01  0.102E-01  0.116E-01  0.103E-01
  12.695  0.383E-01  0.300E-01  0.128E-01  0.100E-01  0.128E-01  0.100E-01  0.128E-01  0.100E-01
  12.705  0.425E-01  0.296E-01  0.141E-01  0.986E-02  0.142E-01  0.986E-02  0.141E-01  0.986E-02
  12.715  0.473E-01  0.295E-01  0.158E-01  0.982E-02  0.158E-01  0.983E-02  0.158E-01  0.982E-02
  12.725  0.529E-01  0.297E-01  0.176E-01  0.990E-02  0.176E-01  0.992E-02  0.176E-01  0.990E-02
  12.735  0.591E-01  0.304E-01  0.197E-01  0.101E-01  0.197E-01  0.102E-01  0.197E-01  0.101E-01
  12.745  0.658E-01  0.316E-01  0.219E-01  0.105E-01  0.219E-01  0.106E-01  0.219E-01  0.105E-01
  12.755  0.729E-01  0.335E-01  0.243E-01  0.111E-01  0.243E-01  0.112E-01  0.243E-01  0.111E-01
  12.765  0.803E-01  0.360E-01  0.267E-01  0.120E-01  0.268E-01  0.120E-01  0.267E-01  0.120E-01
  12.775  0.877E-01  0.392E-01  0.292E-01  0.131E-01  0.292E-01  0.131E-01  0.292E-01  0.131E-01
  12.785  0.950E-01  0.432E-01  0.317E-01  0.144E-01  0.317E-01  0.144E-01  0.317E-01  0.144E-01
  12.795  0.102E+00  0.480E-01  0.340E-01  0.160E-01  0.340E-01  0.160E-01  0.340E-01  0.160E-01
  12.805  0.108E+00  0.535E-01  0.361E-01  0.178E-01  0.361E-01  0.179E-01  0.361E-01  0.178E-01
  12.815  0.114E+00  0.598E-01  0.380E-01  0.199E-01  0.380E-01  0.200E-01  0.380E-01  0.199E-01
  12.825  0.119E+00  0.667E-01  0.395E-01  0.222E-01  0.395E-01  0.223E-01  0.395E-01  0.222E-01
  12.835  0.122E+00  0.741E-01  0.407E-01  0.247E-01  0.407E-01  0.247E-01  0.407E-01  0.247E-01
  12.845  0.124E+00  0.819E-01  0.414E-01  0.273E-01  0.415E-01  0.273E-01  0.414E-01  0.273E-01
  12.855  0.125E+00  0.898E-01  0.417E-01  0.299E-01  0.418E-01  0.299E-01  0.417E-01  0.299E-01
  12.865  0.125E+00  0.976E-01  0.416E-01  0.325E-01  0.416E-01  0.326E-01  0.416E-01  0.325E-01
  12.875  0.123E+00  0.105E+00  0.410E-01  0.350E-01  0.410E-01  0.351E-01  0.410E-01  0.350E-01
  12.885  0.120E+00  0.112E+00  0.399E-01  0.374E-01  0.400E-01  0.374E-01  0.399E-01  0.374E-01
  12.895  0.116E+00  0.118E+00  0.385E-01  0.395E-01  0.386E-01  0.395E-01  0.385E-01  0.395E-01
  12.905  0.111E+00  0.124E+00  0.368E-01  0.412E-01  0.369E-01  0.412E-01  0.368E-01  0.412E-01
  12.915  0.105E+00  0.128E+00  0.349E-01  0.426E-01  0.349E-01  0.426E-01  0.349E-01  0.426E-01
  12.925  0.984E-01  0.130E+00  0.328E-01  0.434E-01  0.328E-01  0.435E-01  0.328E-01  0.434E-01
  12.935  0.920E-01  0.132E+00  0.307E-01  0.438E-01  0.307E-01  0.439E-01  0.307E-01  0.438E-01
  12.945  0.856E-01  0.131E+00  0.285E-01  0.437E-01  0.286E-01  0.437E-01  0.285E-01  0.437E-01
  12.955  0.797E-01  0.129E+00  0.266E-01  0.431E-01  0.266E-01  0.431E-01  0.266E-01  0.431E-01
  12.965  0.743E-01  0.126E+00  0.248E-01  0.420E-01  0.248E-01  0.420E-01  0.248E-01  0.420E-01
  12.975  0.698E-01  0.121E+00  0.233E-01  0.405E-01  0.233E-01  0.405E-01  0.233E-01  0.405E-01
  12.985  0.662E-01  0.116E+00  0.221E-01  0.386E-01  0.221E-01  0.386E-01  0.221E-01  0.386E-01
  12.995  0.638E-01  0.109E+00  0.213E-01  0.364E-01  0.213E-01  0.364E-01  0.213E-01  0.364E-01
  13.005  0.625E-01  0.102E+00  0.208E-01  0.340E-01  0.208E-01  0.340E-01  0.208E-01  0.340E-01
  13.015  0.623E-01  0.945E-01  0.208E-01  0.315E-01  0.208E-01  0.315E-01  0.208E-01  0.315E-01
  13.025  0.632E-01  0.870E-01  0.211E-01  0.290E-01  0.211E-01  0.290E-01  0.211E-01  0.290E-01
  13.035  0.651E-01  0.799E-01  0.217E-01  0.266E-01  0.217E-01  0.266E-01  0.217E-01  0.266E-01
  13.045  0.679E-01  0.734E-01  0.226E-01  0.245E-01  0.226E-01  0.245E-01  0.226E-01  0.245E-01
  13.055  0.715E-01  0.677E-01  0.238E-01  0.226E-01  0.238E-01  0.226E-01  0.238E-01  0.226E-01
  13.065  0.757E-01  0.631E-01  0.252E-01  0.210E-01  0.252E-01  0.210E-01  0.252E-01  0.210E-01
  13.075  0.803E-01  0.597E-01  0.268E-01  0.199E-01  0.268E-01  0.199E-01  0.268E-01  0.199E-01
  13.085  0.853E-01  0.577E-01  0.284E-01  0.192E-01  0.284E-01  0.192E-01  0.284E-01  0.192E-01
  13.095  0.904E-01  0.569E-01  0.301E-01  0.190E-01  0.302E-01  0.190E-01  0.301E-01  0.190E-01
  13.105  0.956E-01  0.576E-01  0.319E-01  0.192E-01  0.319E-01  0.192E-01  0.319E-01  0.192E-01
  13.115  0.101E+00  0.595E-01  0.336E-01  0.198E-01  0.336E-01  0.198E-01  0.336E-01  0.198E-01
  13.125  0.106E+00  0.625E-01  0.353E-01  0.208E-01  0.353E-01  0.209E-01  0.353E-01  0.208E-01
  13.135  0.111E+00  0.666E-01  0.369E-01  0.222E-01  0.370E-01  0.222E-01  0.369E-01  0.222E-01
  13.145  0.116E+00  0.716E-01  0.385E-01  0.239E-01  0.386E-01  0.239E-01  0.385E-01  0.239E-01
  13.155  0.120E+00  0.772E-01  0.400E-01  0.257E-01  0.400E-01  0.258E-01  0.400E-01  0.257E-01
  13.165  0.124E+00  0.834E-01  0.413E-01  0.278E-01  0.414E-01  0.278E-01  0.413E-01  0.278E-01
  13.175  0.128E+00  0.898E-01  0.425E-01  0.299E-01  0.425E-01  0.300E-01  0.425E-01  0.299E-01
  13.185  0.131E+00  0.964E-01  0.435E-01  0.321E-01  0.435E-01  0.322E-01  0.435E-01  0.321E-01
  13.195  0.133E+00  0.103E+00  0.443E-01  0.343E-01  0.443E-01  0.344E-01  0.443E-01  0.343E-01
  13.205  0.134E+00  0.109E+00  0.448E-01  0.365E-01  0.448E-01  0.365E-01  0.448E-01  0.365E-01
  13.215  0.135E+00  0.116E+00  0.450E-01  0.385E-01  0.449E-01  0.386E-01  0.450E-01  0.385E-01
  13.225  0.134E+00  0.121E+00  0.448E-01  0.404E-01  0.448E-01  0.405E-01  0.448E-01  0.404E-01
  13.235  0.133E+00  0.127E+00  0.443E-01  0.422E-01  0.442E-01  0.422E-01  0.443E-01  0.422E-01
  13.245  0.130E+00  0.131E+00  0.434E-01  0.437E-01  0.433E-01  0.437E-01  0.434E-01  0.437E-01
  13.255  0.126E+00  0.135E+00  0.420E-01  0.450E-01  0.419E-01  0.450E-01  0.420E-01  0.450E-01
  13.265  0.121E+00  0.138E+00  0.403E-01  0.460E-01  0.402E-01  0.460E-01  0.403E-01  0.460E-01
  13.275  0.114E+00  0.140E+00  0.382E-01  0.467E-01  0.381E-01  0.467E-01  0.382E-01  0.467E-01
  13.285  0.107E+00  0.141E+00  0.358E-01  0.471E-01  0.356E-01  0.470E-01  0.358E-01  0.471E-01
  13.295  0.991E-01  0.141E+00  0.331E-01  0.471E-01  0.330E-01  0.470E-01  0.331E-01  0.471E-01
  13.305  0.905E-01  0.140E+00  0.302E-01  0.466E-01  0.301E-01  0.466E-01  0.302E-01  0.466E-01
  13.315  0.816E-01  0.137E+00  0.272E-01  0.458E-01  0.271E-01  0.457E-01  0.272E-01  0.458E-01
  13.325  0.727E-01  0.134E+00  0.243E-01  0.446E-01  0.242E-01  0.445E-01  0.243E-01  0.446E-01
  13.335  0.640E-01  0.129E+00  0.214E-01  0.429E-01  0.213E-01  0.428E-01  0.214E-01  0.429E-01
  13.345  0.557E-01  0.122E+00  0.186E-01  0.409E-01  0.185E-01  0.407E-01  0.186E-01  0.409E-01
  13.355  0.482E-01  0.115E+00  0.161E-01  0.385E-01  0.160E-01  0.383E-01  0.161E-01  0.385E-01
  13.365  0.416E-01  0.107E+00  0.139E-01  0.357E-01  0.138E-01  0.356E-01  0.139E-01  0.357E-01
  13.375  0.359E-01  0.982E-01  0.120E-01  0.328E-01  0.120E-01  0.327E-01  0.120E-01  0.328E-01
  13.385  0.313E-01  0.889E-01  0.104E-01  0.297E-01  0.104E-01  0.295E-01  0.104E-01  0.297E-01
  13.395  0.278E-01  0.793E-01  0.927E-02  0.265E-01  0.926E-02  0.264E-01  0.927E-02  0.265E-01
  13.405  0.253E-01  0.698E-01  0.843E-02  0.233E-01  0.843E-02  0.232E-01  0.843E-02  0.233E-01
  13.415  0.238E-01  0.606E-01  0.792E-02  0.202E-01  0.792E-02  0.201E-01  0.792E-02  0.202E-01
  13.425  0.231E-01  0.519E-01  0.769E-02  0.173E-01  0.769E-02  0.173E-01  0.769E-02  0.173E-01
  13.435  0.231E-01  0.440E-01  0.770E-02  0.147E-01  0.771E-02  0.146E-01  0.770E-02  0.147E-01
  13.445  0.237E-01  0.371E-01  0.791E-02  0.124E-01  0.792E-02  0.123E-01  0.791E-02  0.124E-01
  13.455  0.248E-01  0.312E-01  0.828E-02  0.104E-01  0.828E-02  0.104E-01  0.828E-02  0.104E-01
  13.465  0.263E-01  0.265E-01  0.877E-02  0.882E-02  0.876E-02  0.881E-02  0.877E-02  0.882E-02
  13.475  0.280E-01  0.229E-01  0.934E-02  0.764E-02  0.933E-02  0.763E-02  0.934E-02  0.764E-02
  13.485  0.299E-01  0.205E-01  0.997E-02  0.683E-02  0.996E-02  0.684E-02  0.997E-02  0.683E-02
  13.495  0.319E-01  0.192E-01  0.106E-01  0.639E-02  0.106E-01  0.640E-02  0.106E-01  0.639E-02
  13.505  0.340E-01  0.188E-01  0.113E-01  0.627E-02  0.113E-01  0.629E-02  0.113E-01  0.627E-02
  13.515  0.361E-01  0.193E-01  0.121E-01  0.644E-02  0.120E-01  0.646E-02  0.121E-01  0.644E-02
  13.525  0.383E-01  0.206E-01  0.128E-01  0.685E-02  0.127E-01  0.687E-02  0.128E-01  0.685E-02
  13.535  0.404E-01  0.224E-01  0.135E-01  0.745E-02  0.134E-01  0.746E-02  0.135E-01  0.745E-02
  13.545  0.425E-01  0.246E-01  0.142E-01  0.820E-02  0.141E-01  0.820E-02  0.142E-01  0.820E-02
  13.555  0.445E-01  0.271E-01  0.149E-01  0.905E-02  0.148E-01  0.905E-02  0.149E-01  0.905E-02
  13.565  0.464E-01  0.299E-01  0.155E-01  0.997E-02  0.154E-01  0.996E-02  0.155E-01  0.997E-02
  13.575  0.481E-01  0.328E-01  0.161E-01  0.109E-01  0.160E-01  0.109E-01  0.161E-01  0.109E-01
  13.585  0.496E-01  0.357E-01  0.166E-01  0.119E-01  0.165E-01  0.119E-01  0.166E-01  0.119E-01
  13.595  0.508E-01  0.386E-01  0.170E-01  0.129E-01  0.169E-01  0.128E-01  0.170E-01  0.129E-01
  13.605  0.517E-01  0.414E-01  0.173E-01  0.138E-01  0.172E-01  0.138E-01  0.173E-01  0.138E-01
  13.615  0.523E-01  0.442E-01  0.174E-01  0.147E-01  0.174E-01  0.147E-01  0.174E-01  0.147E-01
  13.625  0.525E-01  0.468E-01  0.175E-01  0.156E-01  0.175E-01  0.155E-01  0.175E-01  0.156E-01
  13.635  0.524E-01  0.491E-01  0.175E-01  0.164E-01  0.175E-01  0.163E-01  0.175E-01  0.164E-01
  13.645  0.520E-01  0.513E-01  0.173E-01  0.171E-01  0.173E-01  0.171E-01  0.173E-01  0.171E-01
  13.655  0.513E-01  0.531E-01  0.171E-01  0.177E-01  0.171E-01  0.177E-01  0.171E-01  0.177E-01
  13.665  0.504E-01  0.546E-01  0.168E-01  0.182E-01  0.168E-01  0.182E-01  0.168E-01  0.182E-01
  13.675  0.494E-01  0.558E-01  0.165E-01  0.186E-01  0.165E-01  0.186E-01  0.165E-01  0.186E-01
  13.685  0.485E-01  0.565E-01  0.161E-01  0.188E-01  0.162E-01  0.188E-01  0.161E-01  0.188E-01
  13.695  0.475E-01  0.568E-01  0.158E-01  0.189E-01  0.159E-01  0.189E-01  0.158E-01  0.189E-01
  13.705  0.467E-01  0.567E-01  0.156E-01  0.189E-01  0.156E-01  0.189E-01  0.156E-01  0.189E-01
  13.715  0.462E-01  0.562E-01  0.154E-01  0.187E-01  0.154E-01  0.187E-01  0.154E-01  0.187E-01
  13.725  0.458E-01  0.553E-01  0.153E-01  0.184E-01  0.153E-01  0.184E-01  0.153E-01  0.184E-01
  13.735  0.457E-01  0.541E-01  0.152E-01  0.180E-01  0.153E-01  0.181E-01  0.152E-01  0.180E-01
  13.745  0.459E-01  0.528E-01  0.153E-01  0.176E-01  0.153E-01  0.176E-01  0.153E-01  0.176E-01
  13.755  0.463E-01  0.513E-01  0.154E-01  0.171E-01  0.155E-01  0.171E-01  0.154E-01  0.171E-01
  13.765  0.469E-01  0.498E-01  0.156E-01  0.166E-01  0.156E-01  0.166E-01  0.156E-01  0.166E-01
  13.775  0.476E-01  0.484E-01  0.159E-01  0.161E-01  0.159E-01  0.162E-01  0.159E-01  0.161E-01
  13.785  0.483E-01  0.472E-01  0.161E-01  0.157E-01  0.161E-01  0.158E-01  0.161E-01  0.157E-01
  13.795  0.490E-01  0.463E-01  0.163E-01  0.154E-01  0.163E-01  0.154E-01  0.163E-01  0.154E-01
  13.805  0.495E-01  0.456E-01  0.165E-01  0.152E-01  0.165E-01  0.152E-01  0.165E-01  0.152E-01
  13.815  0.499E-01  0.452E-01  0.166E-01  0.151E-01  0.166E-01  0.151E-01  0.166E-01  0.151E-01
  13.825  0.500E-01  0.452E-01  0.167E-01  0.151E-01  0.166E-01  0.151E-01  0.167E-01  0.151E-01
  13.835  0.498E-01  0.454E-01  0.166E-01  0.151E-01  0.166E-01  0.151E-01  0.166E-01  0.151E-01
  13.845  0.494E-01  0.458E-01  0.165E-01  0.153E-01  0.165E-01  0.153E-01  0.165E-01  0.153E-01
  13.855  0.487E-01  0.464E-01  0.162E-01  0.155E-01  0.162E-01  0.155E-01  0.162E-01  0.155E-01
  13.865  0.480E-01  0.471E-01  0.160E-01  0.157E-01  0.160E-01  0.157E-01  0.160E-01  0.157E-01
  13.875  0.472E-01  0.477E-01  0.157E-01  0.159E-01  0.157E-01  0.159E-01  0.157E-01  0.159E-01
  13.885  0.465E-01  0.483E-01  0.155E-01  0.161E-01  0.155E-01  0.161E-01  0.155E-01  0.161E-01
  13.895  0.461E-01  0.487E-01  0.153E-01  0.162E-01  0.154E-01  0.162E-01  0.153E-01  0.162E-01
  13.905  0.461E-01  0.490E-01  0.154E-01  0.163E-01  0.154E-01  0.163E-01  0.154E-01  0.163E-01
  13.915  0.469E-01  0.491E-01  0.156E-01  0.164E-01  0.157E-01  0.164E-01  0.156E-01  0.164E-01
  13.925  0.484E-01  0.491E-01  0.161E-01  0.164E-01  0.162E-01  0.164E-01  0.161E-01  0.164E-01
  13.935  0.510E-01  0.490E-01  0.169E-01  0.163E-01  0.171E-01  0.163E-01  0.169E-01  0.163E-01
  13.945  0.546E-01  0.490E-01  0.182E-01  0.163E-01  0.183E-01  0.164E-01  0.182E-01  0.163E-01
  13.955  0.595E-01  0.492E-01  0.198E-01  0.164E-01  0.199E-01  0.165E-01  0.198E-01  0.164E-01
  13.965  0.655E-01  0.498E-01  0.217E-01  0.166E-01  0.220E-01  0.167E-01  0.217E-01  0.166E-01
  13.975  0.725E-01  0.510E-01  0.241E-01  0.170E-01  0.243E-01  0.171E-01  0.241E-01  0.170E-01
  13.985  0.806E-01  0.528E-01  0.268E-01  0.176E-01  0.270E-01  0.177E-01  0.268E-01  0.176E-01
  13.995  0.894E-01  0.555E-01  0.297E-01  0.184E-01  0.300E-01  0.186E-01  0.297E-01  0.184E-01
  14.005  0.986E-01  0.592E-01  0.328E-01  0.197E-01  0.330E-01  0.198E-01  0.328E-01  0.197E-01
  14.015  0.108E+00  0.639E-01  0.359E-01  0.212E-01  0.362E-01  0.214E-01  0.359E-01  0.212E-01
  14.025  0.117E+00  0.697E-01  0.390E-01  0.232E-01  0.392E-01  0.234E-01  0.390E-01  0.232E-01
  14.035  0.126E+00  0.765E-01  0.419E-01  0.254E-01  0.420E-01  0.257E-01  0.419E-01  0.254E-01
  14.045  0.133E+00  0.842E-01  0.444E-01  0.280E-01  0.446E-01  0.282E-01  0.444E-01  0.280E-01
  14.055  0.140E+00  0.926E-01  0.466E-01  0.308E-01  0.467E-01  0.311E-01  0.466E-01  0.308E-01
  14.065  0.145E+00  0.101E+00  0.482E-01  0.337E-01  0.483E-01  0.340E-01  0.482E-01  0.337E-01
  14.075  0.148E+00  0.110E+00  0.493E-01  0.367E-01  0.493E-01  0.370E-01  0.493E-01  0.367E-01
  14.085  0.150E+00  0.119E+00  0.499E-01  0.397E-01  0.498E-01  0.399E-01  0.499E-01  0.397E-01
  14.095  0.149E+00  0.127E+00  0.498E-01  0.424E-01  0.497E-01  0.426E-01  0.498E-01  0.424E-01
  14.105  0.148E+00  0.135E+00  0.493E-01  0.448E-01  0.491E-01  0.450E-01  0.493E-01  0.448E-01
  14.115  0.144E+00  0.141E+00  0.482E-01  0.469E-01  0.480E-01  0.470E-01  0.482E-01  0.469E-01
  14.125  0.140E+00  0.145E+00  0.468E-01  0.484E-01  0.465E-01  0.485E-01  0.468E-01  0.484E-01
  14.135  0.135E+00  0.148E+00  0.450E-01  0.494E-01  0.448E-01  0.494E-01  0.450E-01  0.494E-01
  14.145  0.129E+00  0.150E+00  0.430E-01  0.499E-01  0.428E-01  0.498E-01  0.430E-01  0.499E-01
  14.155  0.122E+00  0.149E+00  0.409E-01  0.497E-01  0.406E-01  0.496E-01  0.409E-01  0.497E-01
  14.165  0.116E+00  0.147E+00  0.387E-01  0.490E-01  0.385E-01  0.488E-01  0.387E-01  0.490E-01
  14.175  0.110E+00  0.143E+00  0.366E-01  0.478E-01  0.364E-01  0.476E-01  0.366E-01  0.478E-01
  14.185  0.104E+00  0.138E+00  0.346E-01  0.462E-01  0.344E-01  0.460E-01  0.346E-01  0.462E-01
  14.195  0.978E-01  0.133E+00  0.327E-01  0.443E-01  0.324E-01  0.441E-01  0.327E-01  0.443E-01
  14.205  0.924E-01  0.126E+00  0.308E-01  0.423E-01  0.307E-01  0.420E-01  0.308E-01  0.423E-01
  14.215  0.873E-01  0.120E+00  0.291E-01  0.401E-01  0.290E-01  0.398E-01  0.291E-01  0.401E-01
  14.225  0.825E-01  0.114E+00  0.275E-01  0.379E-01  0.274E-01  0.377E-01  0.275E-01  0.379E-01
  14.235  0.778E-01  0.107E+00  0.260E-01  0.359E-01  0.259E-01  0.356E-01  0.260E-01  0.359E-01
  14.245  0.733E-01  0.102E+00  0.245E-01  0.340E-01  0.244E-01  0.337E-01  0.245E-01  0.340E-01
  14.255  0.688E-01  0.965E-01  0.229E-01  0.322E-01  0.229E-01  0.320E-01  0.229E-01  0.322E-01
  14.265  0.641E-01  0.919E-01  0.214E-01  0.307E-01  0.214E-01  0.305E-01  0.214E-01  0.307E-01
  14.275  0.594E-01  0.880E-01  0.198E-01  0.294E-01  0.198E-01  0.292E-01  0.198E-01  0.294E-01
  14.285  0.545E-01  0.845E-01  0.182E-01  0.282E-01  0.182E-01  0.281E-01  0.182E-01  0.282E-01
  14.295  0.495E-01  0.814E-01  0.165E-01  0.272E-01  0.165E-01  0.271E-01  0.165E-01  0.272E-01
  14.305  0.445E-01  0.785E-01  0.148E-01  0.262E-01  0.148E-01  0.261E-01  0.148E-01  0.262E-01
  14.315  0.395E-01  0.756E-01  0.132E-01  0.252E-01  0.132E-01  0.251E-01  0.132E-01  0.252E-01
  14.325  0.346E-01  0.725E-01  0.115E-01  0.242E-01  0.115E-01  0.241E-01  0.115E-01  0.242E-01
  14.335  0.299E-01  0.692E-01  0.997E-02  0.231E-01  0.999E-02  0.230E-01  0.997E-02  0.231E-01
  14.345  0.256E-01  0.655E-01  0.853E-02  0.218E-01  0.855E-02  0.218E-01  0.853E-02  0.218E-01
  14.355  0.217E-01  0.613E-01  0.724E-02  0.204E-01  0.726E-02  0.204E-01  0.724E-02  0.204E-01
  14.365  0.184E-01  0.568E-01  0.612E-02  0.189E-01  0.614E-02  0.189E-01  0.612E-02  0.189E-01
  14.375  0.156E-01  0.519E-01  0.519E-02  0.173E-01  0.521E-02  0.173E-01  0.519E-02  0.173E-01
  14.385  0.134E-01  0.467E-01  0.445E-02  0.155E-01  0.447E-02  0.156E-01  0.445E-02  0.155E-01
  14.395  0.118E-01  0.413E-01  0.391E-02  0.138E-01  0.393E-02  0.138E-01  0.391E-02  0.138E-01
  14.405  0.107E-01  0.359E-01  0.356E-02  0.120E-01  0.358E-02  0.120E-01  0.356E-02  0.120E-01
  14.415  0.101E-01  0.306E-01  0.338E-02  0.102E-01  0.339E-02  0.102E-01  0.338E-02  0.102E-01
  14.425  0.100E-01  0.256E-01  0.334E-02  0.853E-02  0.335E-02  0.854E-02  0.334E-02  0.853E-02
  14.435  0.102E-01  0.210E-01  0.341E-02  0.698E-02  0.342E-02  0.700E-02  0.341E-02  0.698E-02
  14.445  0.107E-01  0.168E-01  0.357E-02  0.561E-02  0.358E-02  0.562E-02  0.357E-02  0.561E-02
  14.455  0.114E-01  0.133E-01  0.379E-02  0.443E-02  0.379E-02  0.445E-02  0.379E-02  0.443E-02
  14.465  0.121E-01  0.104E-01  0.402E-02  0.347E-02  0.402E-02  0.348E-02  0.402E-02  0.347E-02
  14.475  0.127E-01  0.819E-02  0.425E-02  0.273E-02  0.424E-02  0.274E-02  0.425E-02  0.273E-02
  14.485  0.133E-01  0.663E-02  0.444E-02  0.221E-02  0.443E-02  0.222E-02  0.444E-02  0.221E-02
  14.495  0.138E-01  0.570E-02  0.459E-02  0.189E-02  0.457E-02  0.191E-02  0.459E-02  0.189E-02
  14.505  0.140E-01  0.534E-02  0.467E-02  0.178E-02  0.465E-02  0.179E-02  0.467E-02  0.178E-02
  14.515  0.140E-01  0.549E-02  0.467E-02  0.182E-02  0.464E-02  0.184E-02  0.467E-02  0.182E-02
  14.525  0.137E-01  0.605E-02  0.458E-02  0.201E-02  0.456E-02  0.202E-02  0.458E-02  0.201E-02
  14.535  0.132E-01  0.694E-02  0.442E-02  0.231E-02  0.439E-02  0.232E-02  0.442E-02  0.231E-02
  14.545  0.125E-01  0.805E-02  0.418E-02  0.268E-02  0.415E-02  0.269E-02  0.418E-02  0.268E-02
  14.555  0.116E-01  0.930E-02  0.387E-02  0.310E-02  0.385E-02  0.310E-02  0.387E-02  0.310E-02
  14.565  0.105E-01  0.106E-01  0.351E-02  0.353E-02  0.348E-02  0.353E-02  0.351E-02  0.353E-02
  14.575  0.928E-02  0.118E-01  0.310E-02  0.395E-02  0.308E-02  0.395E-02  0.310E-02  0.395E-02
  14.585  0.799E-02  0.130E-01  0.267E-02  0.433E-02  0.265E-02  0.432E-02  0.267E-02  0.433E-02
  14.595  0.666E-02  0.139E-01  0.223E-02  0.465E-02  0.221E-02  0.464E-02  0.223E-02  0.465E-02
  14.605  0.536E-02  0.147E-01  0.179E-02  0.489E-02  0.177E-02  0.488E-02  0.179E-02  0.489E-02
  14.615  0.413E-02  0.151E-01  0.138E-02  0.505E-02  0.136E-02  0.504E-02  0.138E-02  0.505E-02
  14.625  0.301E-02  0.153E-01  0.101E-02  0.512E-02  0.994E-03  0.510E-02  0.101E-02  0.512E-02
  14.635  0.206E-02  0.152E-01  0.690E-03  0.509E-02  0.677E-03  0.507E-02  0.690E-03  0.509E-02
  14.645  0.131E-02  0.149E-01  0.439E-03  0.496E-02  0.428E-03  0.494E-02  0.439E-03  0.496E-02
  14.655  0.795E-03  0.142E-01  0.268E-03  0.474E-02  0.258E-03  0.472E-02  0.268E-03  0.474E-02
  14.665  0.556E-03  0.133E-01  0.188E-03  0.444E-02  0.179E-03  0.442E-02  0.188E-03  0.444E-02
  14.675  0.617E-03  0.122E-01  0.209E-03  0.407E-02  0.200E-03  0.405E-02  0.209E-03  0.407E-02
  14.685  0.100E-02  0.109E-01  0.336E-03  0.365E-02  0.328E-03  0.363E-02  0.336E-03  0.365E-02
  14.695  0.172E-02  0.955E-02  0.577E-03  0.319E-02  0.569E-03  0.317E-02  0.577E-03  0.319E-02
  14.705  0.279E-02  0.812E-02  0.933E-03  0.272E-02  0.925E-03  0.269E-02  0.933E-03  0.272E-02
  14.715  0.421E-02  0.671E-02  0.141E-02  0.224E-02  0.140E-02  0.222E-02  0.141E-02  0.224E-02
  14.725  0.597E-02  0.536E-02  0.199E-02  0.179E-02  0.198E-02  0.177E-02  0.199E-02  0.179E-02
  14.735  0.804E-02  0.414E-02  0.268E-02  0.138E-02  0.268E-02  0.137E-02  0.268E-02  0.138E-02
  14.745  0.104E-01  0.310E-02  0.347E-02  0.104E-02  0.347E-02  0.102E-02  0.347E-02  0.104E-02
  14.755  0.130E-01  0.231E-02  0.435E-02  0.775E-03  0.434E-02  0.762E-03  0.435E-02  0.775E-03
  14.765  0.159E-01  0.181E-02  0.529E-02  0.608E-03  0.528E-02  0.596E-03  0.529E-02  0.608E-03
  14.775  0.188E-01  0.164E-02  0.627E-02  0.551E-03  0.627E-02  0.542E-03  0.627E-02  0.551E-03
  14.785  0.218E-01  0.184E-02  0.728E-02  0.617E-03  0.727E-02  0.609E-03  0.728E-02  0.617E-03
  14.795  0.248E-01  0.243E-02  0.828E-02  0.813E-03  0.827E-02  0.805E-03  0.828E-02  0.813E-03
  14.805  0.277E-01  0.342E-02  0.924E-02  0.114E-02  0.923E-02  0.114E-02  0.924E-02  0.114E-02
  14.815  0.304E-01  0.481E-02  0.101E-01  0.161E-02  0.101E-01  0.160E-02  0.101E-01  0.161E-02
  14.825  0.329E-01  0.658E-02  0.110E-01  0.220E-02  0.109E-01  0.219E-02  0.110E-01  0.220E-02
  14.835  0.350E-01  0.870E-02  0.117E-01  0.290E-02  0.116E-01  0.290E-02  0.117E-01  0.290E-02
  14.845  0.366E-01  0.111E-01  0.122E-01  0.371E-02  0.122E-01  0.370E-02  0.122E-01  0.371E-02
  14.855  0.378E-01  0.138E-01  0.126E-01  0.460E-02  0.126E-01  0.460E-02  0.126E-01  0.460E-02
  14.865  0.386E-01  0.167E-01  0.129E-01  0.555E-02  0.129E-01  0.555E-02  0.129E-01  0.555E-02
  14.875  0.388E-01  0.196E-01  0.129E-01  0.653E-02  0.129E-01  0.653E-02  0.129E-01  0.653E-02
  14.885  0.385E-01  0.225E-01  0.128E-01  0.752E-02  0.128E-01  0.751E-02  0.128E-01  0.752E-02
  14.895  0.377E-01  0.254E-01  0.126E-01  0.847E-02  0.126E-01  0.846E-02  0.126E-01  0.847E-02
  14.905  0.364E-01  0.281E-01  0.121E-01  0.936E-02  0.121E-01  0.935E-02  0.121E-01  0.936E-02
  14.915  0.348E-01  0.305E-01  0.116E-01  0.102E-01  0.116E-01  0.102E-01  0.116E-01  0.102E-01
  14.925  0.328E-01  0.325E-01  0.109E-01  0.109E-01  0.109E-01  0.108E-01  0.109E-01  0.109E-01
  14.935  0.305E-01  0.342E-01  0.102E-01  0.114E-01  0.102E-01  0.114E-01  0.102E-01  0.114E-01
  14.945  0.281E-01  0.354E-01  0.939E-02  0.118E-01  0.937E-02  0.118E-01  0.939E-02  0.118E-01
  14.955  0.257E-01  0.361E-01  0.856E-02  0.120E-01  0.855E-02  0.120E-01  0.856E-02  0.120E-01
  14.965  0.233E-01  0.364E-01  0.776E-02  0.121E-01  0.774E-02  0.121E-01  0.776E-02  0.121E-01
  14.975  0.210E-01  0.361E-01  0.700E-02  0.120E-01  0.698E-02  0.120E-01  0.700E-02  0.120E-01
  14.985  0.189E-01  0.354E-01  0.632E-02  0.118E-01  0.630E-02  0.118E-01  0.632E-02  0.118E-01
  14.995  0.173E-01  0.343E-01  0.576E-02  0.114E-01  0.574E-02  0.114E-01  0.576E-02  0.114E-01
  15.005  0.160E-01  0.329E-01  0.534E-02  0.110E-01  0.533E-02  0.110E-01  0.534E-02  0.110E-01
  15.015  0.153E-01  0.312E-01  0.511E-02  0.104E-01  0.509E-02  0.104E-01  0.511E-02  0.104E-01
  15.025  0.152E-01  0.294E-01  0.508E-02  0.981E-02  0.506E-02  0.979E-02  0.508E-02  0.981E-02
  15.035  0.158E-01  0.275E-01  0.527E-02  0.918E-02  0.526E-02  0.917E-02  0.527E-02  0.918E-02
  15.045  0.171E-01  0.257E-01  0.570E-02  0.857E-02  0.569E-02  0.856E-02  0.570E-02  0.857E-02
  15.055  0.191E-01  0.240E-01  0.638E-02  0.801E-02  0.637E-02  0.800E-02  0.638E-02  0.801E-02
  15.065  0.219E-01  0.226E-01  0.731E-02  0.754E-02  0.731E-02  0.753E-02  0.731E-02  0.754E-02
  15.075  0.254E-01  0.216E-01  0.848E-02  0.720E-02  0.848E-02  0.718E-02  0.848E-02  0.720E-02
  15.085  0.296E-01  0.210E-01  0.987E-02  0.700E-02  0.987E-02  0.699E-02  0.987E-02  0.700E-02
  15.095  0.343E-01  0.210E-01  0.114E-01  0.699E-02  0.114E-01  0.698E-02  0.114E-01  0.699E-02
  15.105  0.395E-01  0.216E-01  0.132E-01  0.719E-02  0.132E-01  0.718E-02  0.132E-01  0.719E-02
  15.115  0.451E-01  0.228E-01  0.150E-01  0.761E-02  0.150E-01  0.760E-02  0.150E-01  0.761E-02
  15.125  0.508E-01  0.248E-01  0.169E-01  0.826E-02  0.169E-01  0.825E-02  0.169E-01  0.826E-02
  15.135  0.565E-01  0.274E-01  0.188E-01  0.914E-02  0.188E-01  0.914E-02  0.188E-01  0.914E-02
  15.145  0.620E-01  0.307E-01  0.206E-01  0.102E-01  0.207E-01  0.103E-01  0.206E-01  0.102E-01
  15.155  0.672E-01  0.347E-01  0.224E-01  0.116E-01  0.224E-01  0.116E-01  0.224E-01  0.116E-01
  15.165  0.719E-01  0.392E-01  0.239E-01  0.130E-01  0.240E-01  0.131E-01  0.239E-01  0.130E-01
  15.175  0.759E-01  0.440E-01  0.253E-01  0.147E-01  0.253E-01  0.147E-01  0.253E-01  0.147E-01
  15.185  0.792E-01  0.492E-01  0.264E-01  0.164E-01  0.264E-01  0.164E-01  0.264E-01  0.164E-01
  15.195  0.817E-01  0.544E-01  0.272E-01  0.181E-01  0.273E-01  0.182E-01  0.272E-01  0.181E-01
  15.205  0.833E-01  0.596E-01  0.277E-01  0.199E-01  0.278E-01  0.199E-01  0.277E-01  0.199E-01
  15.215  0.839E-01  0.646E-01  0.279E-01  0.215E-01  0.280E-01  0.216E-01  0.279E-01  0.215E-01
  15.225  0.836E-01  0.691E-01  0.279E-01  0.230E-01  0.279E-01  0.231E-01  0.279E-01  0.230E-01
  15.235  0.825E-01  0.731E-01  0.275E-01  0.243E-01  0.275E-01  0.244E-01  0.275E-01  0.243E-01
  15.245  0.805E-01  0.764E-01  0.268E-01  0.255E-01  0.269E-01  0.255E-01  0.268E-01  0.255E-01
  15.255  0.778E-01  0.790E-01  0.259E-01  0.263E-01  0.260E-01  0.264E-01  0.259E-01  0.263E-01
  15.265  0.745E-01  0.808E-01  0.248E-01  0.269E-01  0.249E-01  0.270E-01  0.248E-01  0.269E-01
  15.275  0.708E-01  0.818E-01  0.236E-01  0.272E-01  0.236E-01  0.273E-01  0.236E-01  0.272E-01
  15.285  0.667E-01  0.820E-01  0.222E-01  0.273E-01  0.222E-01  0.274E-01  0.222E-01  0.273E-01
  15.295  0.623E-01  0.815E-01  0.208E-01  0.271E-01  0.208E-01  0.272E-01  0.208E-01  0.271E-01
  15.305  0.579E-01  0.804E-01  0.193E-01  0.268E-01  0.193E-01  0.268E-01  0.193E-01  0.268E-01
  15.315  0.536E-01  0.787E-01  0.179E-01  0.262E-01  0.179E-01  0.263E-01  0.179E-01  0.262E-01
  15.325  0.495E-01  0.767E-01  0.165E-01  0.256E-01  0.165E-01  0.256E-01  0.165E-01  0.256E-01
  15.335  0.456E-01  0.745E-01  0.152E-01  0.248E-01  0.152E-01  0.249E-01  0.152E-01  0.248E-01
  15.345  0.422E-01  0.721E-01  0.141E-01  0.240E-01  0.141E-01  0.241E-01  0.141E-01  0.240E-01
  15.355  0.393E-01  0.697E-01  0.131E-01  0.232E-01  0.131E-01  0.233E-01  0.131E-01  0.232E-01
  15.365  0.369E-01  0.674E-01  0.123E-01  0.225E-01  0.123E-01  0.225E-01  0.123E-01  0.225E-01
  15.375  0.351E-01  0.653E-01  0.117E-01  0.218E-01  0.117E-01  0.218E-01  0.117E-01  0.218E-01
  15.385  0.338E-01  0.632E-01  0.113E-01  0.211E-01  0.112E-01  0.211E-01  0.113E-01  0.211E-01
  15.395  0.331E-01  0.614E-01  0.110E-01  0.205E-01  0.110E-01  0.205E-01  0.110E-01  0.205E-01
  15.405  0.328E-01  0.598E-01  0.109E-01  0.199E-01  0.109E-01  0.199E-01  0.109E-01  0.199E-01
  15.415  0.329E-01  0.582E-01  0.110E-01  0.194E-01  0.109E-01  0.194E-01  0.110E-01  0.194E-01
  15.425  0.333E-01  0.568E-01  0.111E-01  0.189E-01  0.111E-01  0.189E-01  0.111E-01  0.189E-01
  15.435  0.339E-01  0.554E-01  0.113E-01  0.185E-01  0.113E-01  0.184E-01  0.113E-01  0.185E-01
  15.445  0.345E-01  0.539E-01  0.115E-01  0.180E-01  0.115E-01  0.179E-01  0.115E-01  0.180E-01
  15.455  0.350E-01  0.524E-01  0.117E-01  0.175E-01  0.116E-01  0.174E-01  0.117E-01  0.175E-01
  15.465  0.353E-01  0.507E-01  0.118E-01  0.169E-01  0.117E-01  0.168E-01  0.118E-01  0.169E-01
  15.475  0.353E-01  0.488E-01  0.118E-01  0.163E-01  0.117E-01  0.162E-01  0.118E-01  0.163E-01
  15.485  0.350E-01  0.467E-01  0.117E-01  0.156E-01  0.116E-01  0.155E-01  0.117E-01  0.156E-01
  15.495  0.342E-01  0.444E-01  0.114E-01  0.148E-01  0.114E-01  0.147E-01  0.114E-01  0.148E-01
  15.505  0.330E-01  0.419E-01  0.110E-01  0.140E-01  0.110E-01  0.139E-01  0.110E-01  0.140E-01
  15.515  0.314E-01  0.392E-01  0.105E-01  0.131E-01  0.104E-01  0.130E-01  0.105E-01  0.131E-01
  15.525  0.295E-01  0.364E-01  0.985E-02  0.122E-01  0.979E-02  0.121E-01  0.985E-02  0.122E-01
  15.535  0.272E-01  0.335E-01  0.909E-02  0.112E-01  0.904E-02  0.111E-01  0.909E-02  0.112E-01
  15.545  0.247E-01  0.305E-01  0.826E-02  0.102E-01  0.822E-02  0.101E-01  0.826E-02  0.102E-01
  15.555  0.221E-01  0.276E-01  0.739E-02  0.921E-02  0.735E-02  0.915E-02  0.739E-02  0.921E-02
  15.565  0.195E-01  0.247E-01  0.651E-02  0.825E-02  0.648E-02  0.819E-02  0.651E-02  0.825E-02
  15.575  0.169E-01  0.219E-01  0.566E-02  0.732E-02  0.563E-02  0.727E-02  0.566E-02  0.732E-02
  15.585  0.145E-01  0.193E-01  0.485E-02  0.644E-02  0.482E-02  0.640E-02  0.485E-02  0.644E-02
  15.595  0.123E-01  0.169E-01  0.411E-02  0.563E-02  0.409E-02  0.559E-02  0.411E-02  0.563E-02
  15.605  0.104E-01  0.146E-01  0.347E-02  0.488E-02  0.345E-02  0.486E-02  0.347E-02  0.488E-02
  15.615  0.875E-02  0.126E-01  0.292E-02  0.421E-02  0.291E-02  0.419E-02  0.292E-02  0.421E-02
  15.625  0.745E-02  0.108E-01  0.248E-02  0.362E-02  0.248E-02  0.360E-02  0.248E-02  0.362E-02
  15.635  0.646E-02  0.929E-02  0.215E-02  0.310E-02  0.215E-02  0.308E-02  0.215E-02  0.310E-02
  15.645  0.578E-02  0.795E-02  0.193E-02  0.266E-02  0.193E-02  0.264E-02  0.193E-02  0.266E-02
  15.655  0.539E-02  0.683E-02  0.179E-02  0.228E-02  0.180E-02  0.227E-02  0.179E-02  0.228E-02
  15.665  0.524E-02  0.590E-02  0.175E-02  0.197E-02  0.175E-02  0.196E-02  0.175E-02  0.197E-02
  15.675  0.533E-02  0.516E-02  0.177E-02  0.172E-02  0.178E-02  0.171E-02  0.177E-02  0.172E-02
  15.685  0.560E-02  0.458E-02  0.186E-02  0.153E-02  0.187E-02  0.152E-02  0.186E-02  0.153E-02
  15.695  0.604E-02  0.417E-02  0.201E-02  0.139E-02  0.202E-02  0.139E-02  0.201E-02  0.139E-02
  15.705  0.662E-02  0.390E-02  0.220E-02  0.130E-02  0.222E-02  0.130E-02  0.220E-02  0.130E-02
  15.715  0.734E-02  0.378E-02  0.244E-02  0.126E-02  0.246E-02  0.126E-02  0.244E-02  0.126E-02
  15.725  0.819E-02  0.379E-02  0.272E-02  0.127E-02  0.274E-02  0.126E-02  0.272E-02  0.127E-02
  15.735  0.915E-02  0.393E-02  0.305E-02  0.131E-02  0.306E-02  0.131E-02  0.305E-02  0.131E-02
  15.745  0.102E-01  0.418E-02  0.341E-02  0.140E-02  0.342E-02  0.139E-02  0.341E-02  0.140E-02
  15.755  0.115E-01  0.455E-02  0.382E-02  0.152E-02  0.383E-02  0.151E-02  0.382E-02  0.152E-02
  15.765  0.128E-01  0.501E-02  0.428E-02  0.167E-02  0.429E-02  0.167E-02  0.428E-02  0.167E-02
  15.775  0.143E-01  0.557E-02  0.478E-02  0.186E-02  0.479E-02  0.186E-02  0.478E-02  0.186E-02
  15.785  0.160E-01  0.621E-02  0.533E-02  0.207E-02  0.534E-02  0.207E-02  0.533E-02  0.207E-02
  15.795  0.178E-01  0.692E-02  0.592E-02  0.231E-02  0.593E-02  0.231E-02  0.592E-02  0.231E-02
  15.805  0.197E-01  0.770E-02  0.655E-02  0.257E-02  0.656E-02  0.257E-02  0.655E-02  0.257E-02
  15.815  0.216E-01  0.853E-02  0.721E-02  0.284E-02  0.722E-02  0.285E-02  0.721E-02  0.284E-02
  15.825  0.237E-01  0.941E-02  0.789E-02  0.314E-02  0.789E-02  0.314E-02  0.789E-02  0.314E-02
  15.835  0.257E-01  0.103E-01  0.858E-02  0.344E-02  0.858E-02  0.345E-02  0.858E-02  0.344E-02
  15.845  0.278E-01  0.113E-01  0.927E-02  0.376E-02  0.926E-02  0.377E-02  0.927E-02  0.376E-02
  15.855  0.298E-01  0.123E-01  0.993E-02  0.410E-02  0.993E-02  0.411E-02  0.993E-02  0.410E-02
  15.865  0.317E-01  0.134E-01  0.106E-01  0.445E-02  0.106E-01  0.446E-02  0.106E-01  0.445E-02
  15.875  0.334E-01  0.145E-01  0.111E-01  0.481E-02  0.111E-01  0.483E-02  0.111E-01  0.481E-02
  15.885  0.350E-01  0.156E-01  0.117E-01  0.520E-02  0.117E-01  0.521E-02  0.117E-01  0.520E-02
  15.895  0.363E-01  0.168E-01  0.121E-01  0.560E-02  0.121E-01  0.561E-02  0.121E-01  0.560E-02
  15.905  0.375E-01  0.181E-01  0.125E-01  0.602E-02  0.125E-01  0.603E-02  0.125E-01  0.602E-02
  15.915  0.383E-01  0.194E-01  0.128E-01  0.646E-02  0.128E-01  0.647E-02  0.128E-01  0.646E-02
  15.925  0.389E-01  0.208E-01  0.130E-01  0.693E-02  0.130E-01  0.694E-02  0.130E-01  0.693E-02
  15.935  0.392E-01  0.223E-01  0.131E-01  0.742E-02  0.131E-01  0.743E-02  0.131E-01  0.742E-02
  15.945  0.392E-01  0.238E-01  0.131E-01  0.793E-02  0.131E-01  0.793E-02  0.131E-01  0.793E-02
  15.955  0.390E-01  0.254E-01  0.130E-01  0.845E-02  0.130E-01  0.846E-02  0.130E-01  0.845E-02
  15.965  0.385E-01  0.270E-01  0.128E-01  0.900E-02  0.128E-01  0.900E-02  0.128E-01  0.900E-02
  15.975  0.378E-01  0.286E-01  0.126E-01  0.954E-02  0.126E-01  0.954E-02  0.126E-01  0.954E-02
  15.985  0.368E-01  0.303E-01  0.123E-01  0.101E-01  0.123E-01  0.101E-01  0.123E-01  0.101E-01
  15.995  0.356E-01  0.319E-01  0.119E-01  0.106E-01  0.119E-01  0.106E-01  0.119E-01  0.106E-01
  16.005  0.342E-01  0.335E-01  0.114E-01  0.112E-01  0.114E-01  0.111E-01  0.114E-01  0.112E-01
  16.015  0.327E-01  0.349E-01  0.109E-01  0.116E-01  0.109E-01  0.116E-01  0.109E-01  0.116E-01
  16.025  0.309E-01  0.363E-01  0.103E-01  0.121E-01  0.103E-01  0.121E-01  0.103E-01  0.121E-01
  16.035  0.290E-01  0.375E-01  0.966E-02  0.125E-01  0.965E-02  0.125E-01  0.966E-02  0.125E-01
  16.045  0.269E-01  0.385E-01  0.897E-02  0.128E-01  0.897E-02  0.128E-01  0.897E-02  0.128E-01
  16.055  0.247E-01  0.393E-01  0.824E-02  0.131E-01  0.824E-02  0.131E-01  0.824E-02  0.131E-01
  16.065  0.224E-01  0.398E-01  0.748E-02  0.133E-01  0.748E-02  0.133E-01  0.748E-02  0.133E-01
  16.075  0.201E-01  0.401E-01  0.670E-02  0.134E-01  0.670E-02  0.133E-01  0.670E-02  0.134E-01
  16.085  0.177E-01  0.400E-01  0.591E-02  0.133E-01  0.591E-02  0.133E-01  0.591E-02  0.133E-01
  16.095  0.154E-01  0.396E-01  0.513E-02  0.132E-01  0.513E-02  0.132E-01  0.513E-02  0.132E-01
  16.105  0.131E-01  0.389E-01  0.437E-02  0.130E-01  0.437E-02  0.130E-01  0.437E-02  0.130E-01
  16.115  0.109E-01  0.378E-01  0.365E-02  0.126E-01  0.365E-02  0.126E-01  0.365E-02  0.126E-01
  16.125  0.895E-02  0.365E-01  0.298E-02  0.122E-01  0.298E-02  0.122E-01  0.298E-02  0.122E-01
  16.135  0.716E-02  0.348E-01  0.239E-02  0.116E-01  0.239E-02  0.116E-01  0.239E-02  0.116E-01
  16.145  0.565E-02  0.328E-01  0.188E-02  0.109E-01  0.188E-02  0.109E-01  0.188E-02  0.109E-01
  16.155  0.445E-02  0.306E-01  0.148E-02  0.102E-01  0.148E-02  0.102E-01  0.148E-02  0.102E-01
  16.165  0.359E-02  0.282E-01  0.119E-02  0.940E-02  0.120E-02  0.939E-02  0.119E-02  0.940E-02
  16.175  0.310E-02  0.256E-01  0.103E-02  0.854E-02  0.103E-02  0.853E-02  0.103E-02  0.854E-02
  16.185  0.300E-02  0.229E-01  0.999E-03  0.764E-02  0.100E-02  0.763E-02  0.999E-03  0.764E-02
  16.195  0.329E-02  0.201E-01  0.110E-02  0.671E-02  0.110E-02  0.671E-02  0.110E-02  0.671E-02
  16.205  0.397E-02  0.174E-01  0.132E-02  0.579E-02  0.133E-02  0.579E-02  0.132E-02  0.579E-02
  16.215  0.501E-02  0.147E-01  0.167E-02  0.489E-02  0.167E-02  0.489E-02  0.167E-02  0.489E-02
  16.225  0.638E-02  0.121E-01  0.213E-02  0.402E-02  0.213E-02  0.402E-02  0.213E-02  0.402E-02
  16.235  0.803E-02  0.964E-02  0.267E-02  0.321E-02  0.268E-02  0.321E-02  0.267E-02  0.321E-02
  16.245  0.989E-02  0.743E-02  0.330E-02  0.248E-02  0.330E-02  0.248E-02  0.330E-02  0.248E-02
  16.255  0.119E-01  0.548E-02  0.397E-02  0.183E-02  0.397E-02  0.183E-02  0.397E-02  0.183E-02
  16.265  0.140E-01  0.383E-02  0.467E-02  0.128E-02  0.467E-02  0.128E-02  0.467E-02  0.128E-02
  16.275  0.161E-01  0.251E-02  0.538E-02  0.837E-03  0.538E-02  0.839E-03  0.538E-02  0.837E-03
  16.285  0.182E-01  0.155E-02  0.606E-02  0.517E-03  0.606E-02  0.519E-03  0.606E-02  0.517E-03
  16.295  0.201E-01  0.967E-03  0.669E-02  0.321E-03  0.669E-02  0.324E-03  0.669E-02  0.321E-03
  16.305  0.218E-01  0.763E-03  0.726E-02  0.253E-03  0.726E-02  0.256E-03  0.726E-02  0.253E-03
  16.315  0.232E-01  0.939E-03  0.773E-02  0.312E-03  0.773E-02  0.315E-03  0.773E-02  0.312E-03
  16.325  0.243E-01  0.149E-02  0.811E-02  0.494E-03  0.811E-02  0.498E-03  0.811E-02  0.494E-03
  16.335  0.251E-01  0.239E-02  0.837E-02  0.794E-03  0.837E-02  0.798E-03  0.837E-02  0.794E-03
  16.345  0.256E-01  0.361E-02  0.852E-02  0.120E-02  0.852E-02  0.121E-02  0.852E-02  0.120E-02
  16.355  0.257E-01  0.512E-02  0.856E-02  0.171E-02  0.855E-02  0.171E-02  0.856E-02  0.171E-02
  16.365  0.254E-01  0.688E-02  0.848E-02  0.229E-02  0.847E-02  0.230E-02  0.848E-02  0.229E-02
  16.375  0.249E-01  0.883E-02  0.829E-02  0.294E-02  0.829E-02  0.294E-02  0.829E-02  0.294E-02
  16.385  0.241E-01  0.109E-01  0.802E-02  0.363E-02  0.802E-02  0.364E-02  0.802E-02  0.363E-02
  16.395  0.230E-01  0.131E-01  0.767E-02  0.435E-02  0.767E-02  0.435E-02  0.767E-02  0.435E-02
  16.405  0.218E-01  0.152E-01  0.726E-02  0.506E-02  0.726E-02  0.507E-02  0.726E-02  0.506E-02
  16.415  0.204E-01  0.173E-01  0.680E-02  0.576E-02  0.680E-02  0.576E-02  0.680E-02  0.576E-02
  16.425  0.189E-01  0.192E-01  0.632E-02  0.640E-02  0.632E-02  0.640E-02  0.632E-02  0.640E-02
  16.435  0.174E-01  0.210E-01  0.581E-02  0.699E-02  0.581E-02  0.698E-02  0.581E-02  0.699E-02
  16.445  0.159E-01  0.225E-01  0.531E-02  0.748E-02  0.531E-02  0.748E-02  0.531E-02  0.748E-02
  16.455  0.144E-01  0.237E-01  0.481E-02  0.789E-02  0.481E-02  0.789E-02  0.481E-02  0.789E-02
  16.465  0.130E-01  0.246E-01  0.433E-02  0.818E-02  0.433E-02  0.818E-02  0.433E-02  0.818E-02
  16.475  0.116E-01  0.251E-01  0.387E-02  0.837E-02  0.387E-02  0.837E-02  0.387E-02  0.837E-02
  16.485  0.103E-01  0.253E-01  0.343E-02  0.844E-02  0.344E-02  0.844E-02  0.343E-02  0.844E-02
  16.495  0.909E-02  0.252E-01  0.303E-02  0.840E-02  0.303E-02  0.840E-02  0.303E-02  0.840E-02
  16.505  0.796E-02  0.248E-01  0.265E-02  0.825E-02  0.266E-02  0.825E-02  0.265E-02  0.825E-02
  16.515  0.692E-02  0.240E-01  0.231E-02  0.801E-02  0.231E-02  0.801E-02  0.231E-02  0.801E-02
  16.525  0.597E-02  0.231E-01  0.199E-02  0.769E-02  0.199E-02  0.769E-02  0.199E-02  0.769E-02
  16.535  0.511E-02  0.219E-01  0.170E-02  0.731E-02  0.170E-02  0.731E-02  0.170E-02  0.731E-02
  16.545  0.432E-02  0.206E-01  0.144E-02  0.688E-02  0.144E-02  0.688E-02  0.144E-02  0.688E-02
  16.555  0.362E-02  0.192E-01  0.120E-02  0.641E-02  0.121E-02  0.641E-02  0.120E-02  0.641E-02
  16.565  0.299E-02  0.178E-01  0.995E-03  0.592E-02  0.997E-03  0.592E-02  0.995E-03  0.592E-02
  16.575  0.243E-02  0.163E-01  0.809E-03  0.542E-02  0.812E-03  0.542E-02  0.809E-03  0.542E-02
  16.585  0.194E-02  0.148E-01  0.647E-03  0.493E-02  0.650E-03  0.493E-02  0.647E-03  0.493E-02
  16.595  0.153E-02  0.134E-01  0.508E-03  0.445E-02  0.510E-03  0.445E-02  0.508E-03  0.445E-02
  16.605  0.117E-02  0.120E-01  0.391E-03  0.399E-02  0.393E-03  0.399E-02  0.391E-03  0.399E-02
  16.615  0.887E-03  0.107E-01  0.295E-03  0.356E-02  0.297E-03  0.356E-02  0.295E-03  0.356E-02
  16.625  0.662E-03  0.945E-02  0.220E-03  0.315E-02  0.222E-03  0.315E-02  0.220E-03  0.315E-02
  16.635  0.497E-03  0.832E-02  0.165E-03  0.277E-02  0.167E-03  0.277E-02  0.165E-03  0.277E-02
  16.645  0.391E-03  0.728E-02  0.130E-03  0.243E-02  0.131E-03  0.243E-02  0.130E-03  0.243E-02
  16.655  0.344E-03  0.632E-02  0.114E-03  0.211E-02  0.115E-03  0.211E-02  0.114E-03  0.211E-02
  16.665  0.356E-03  0.544E-02  0.118E-03  0.181E-02  0.119E-03  0.182E-02  0.118E-03  0.181E-02
  16.675  0.430E-03  0.465E-02  0.143E-03  0.155E-02  0.143E-03  0.155E-02  0.143E-03  0.155E-02
  16.685  0.570E-03  0.393E-02  0.190E-03  0.131E-02  0.190E-03  0.131E-02  0.190E-03  0.131E-02
  16.695  0.782E-03  0.329E-02  0.261E-03  0.109E-02  0.260E-03  0.110E-02  0.261E-03  0.109E-02
  16.705  0.107E-02  0.271E-02  0.359E-03  0.902E-03  0.357E-03  0.905E-03  0.359E-03  0.902E-03
  16.715  0.145E-02  0.220E-02  0.486E-03  0.733E-03  0.483E-03  0.736E-03  0.486E-03  0.733E-03
  16.725  0.193E-02  0.176E-02  0.645E-03  0.586E-03  0.642E-03  0.589E-03  0.645E-03  0.586E-03
  16.735  0.251E-02  0.138E-02  0.839E-03  0.461E-03  0.835E-03  0.463E-03  0.839E-03  0.461E-03
  16.745  0.320E-02  0.107E-02  0.107E-02  0.357E-03  0.107E-02  0.359E-03  0.107E-02  0.357E-03
  16.755  0.401E-02  0.825E-03  0.134E-02  0.274E-03  0.133E-02  0.277E-03  0.134E-02  0.274E-03
  16.765  0.491E-02  0.641E-03  0.164E-02  0.213E-03  0.163E-02  0.215E-03  0.164E-02  0.213E-03
  16.775  0.592E-02  0.522E-03  0.198E-02  0.173E-03  0.197E-02  0.175E-03  0.198E-02  0.173E-03
  16.785  0.700E-02  0.469E-03  0.234E-02  0.156E-03  0.233E-02  0.157E-03  0.234E-02  0.156E-03
  16.795  0.815E-02  0.485E-03  0.272E-02  0.161E-03  0.271E-02  0.162E-03  0.272E-02  0.161E-03
  16.805  0.931E-02  0.573E-03  0.311E-02  0.191E-03  0.310E-02  0.191E-03  0.311E-02  0.191E-03
  16.815  0.105E-01  0.736E-03  0.349E-02  0.245E-03  0.348E-02  0.245E-03  0.349E-02  0.245E-03
  16.825  0.116E-01  0.982E-03  0.386E-02  0.328E-03  0.385E-02  0.327E-03  0.386E-02  0.328E-03
  16.835  0.126E-01  0.132E-02  0.419E-02  0.439E-03  0.418E-02  0.437E-03  0.419E-02  0.439E-03
  16.845  0.134E-01  0.174E-02  0.448E-02  0.581E-03  0.447E-02  0.579E-03  0.448E-02  0.581E-03
  16.855  0.141E-01  0.227E-02  0.470E-02  0.757E-03  0.469E-02  0.754E-03  0.470E-02  0.757E-03
  16.865  0.145E-01  0.290E-02  0.485E-02  0.967E-03  0.484E-02  0.964E-03  0.485E-02  0.967E-03
  16.875  0.147E-01  0.363E-02  0.491E-02  0.121E-02  0.490E-02  0.121E-02  0.491E-02  0.121E-02
  16.885  0.146E-01  0.446E-02  0.488E-02  0.149E-02  0.487E-02  0.148E-02  0.488E-02  0.149E-02
  16.895  0.143E-01  0.539E-02  0.476E-02  0.180E-02  0.475E-02  0.179E-02  0.476E-02  0.180E-02
  16.905  0.136E-01  0.639E-02  0.454E-02  0.213E-02  0.453E-02  0.213E-02  0.454E-02  0.213E-02
  16.915  0.127E-01  0.745E-02  0.423E-02  0.249E-02  0.422E-02  0.248E-02  0.423E-02  0.249E-02
  16.925  0.115E-01  0.853E-02  0.384E-02  0.285E-02  0.383E-02  0.284E-02  0.384E-02  0.285E-02
  16.935  0.101E-01  0.961E-02  0.337E-02  0.321E-02  0.336E-02  0.320E-02  0.337E-02  0.321E-02
  16.945  0.850E-02  0.106E-01  0.283E-02  0.355E-02  0.283E-02  0.354E-02  0.283E-02  0.355E-02
  16.955  0.676E-02  0.116E-01  0.225E-02  0.387E-02  0.225E-02  0.386E-02  0.225E-02  0.387E-02
  16.965  0.492E-02  0.124E-01  0.164E-02  0.414E-02  0.164E-02  0.413E-02  0.164E-02  0.414E-02
  16.975  0.303E-02  0.131E-01  0.101E-02  0.436E-02  0.101E-02  0.435E-02  0.101E-02  0.436E-02
  16.985  0.115E-02  0.135E-01  0.385E-03  0.450E-02  0.384E-03  0.449E-02  0.385E-03  0.450E-02
  16.995 -0.654E-03  0.137E-01 -0.218E-03  0.456E-02 -0.219E-03  0.455E-02 -0.218E-03  0.456E-02
  17.005 -0.233E-02  0.136E-01 -0.777E-03  0.454E-02 -0.778E-03  0.453E-02 -0.777E-03  0.454E-02
  17.015 -0.381E-02  0.132E-01 -0.127E-02  0.442E-02 -0.127E-02  0.441E-02 -0.127E-02  0.442E-02
  17.025 -0.501E-02  0.126E-01 -0.167E-02  0.420E-02 -0.167E-02  0.419E-02 -0.167E-02  0.420E-02
  17.035 -0.584E-02  0.117E-01 -0.195E-02  0.389E-02 -0.195E-02  0.389E-02 -0.195E-02  0.389E-02
  17.045 -0.622E-02  0.105E-01 -0.207E-02  0.350E-02 -0.207E-02  0.349E-02 -0.207E-02  0.350E-02
  17.055 -0.604E-02  0.909E-02 -0.201E-02  0.303E-02 -0.201E-02  0.303E-02 -0.201E-02  0.303E-02
  17.065 -0.520E-02  0.751E-02 -0.173E-02  0.251E-02 -0.173E-02  0.250E-02 -0.173E-02  0.251E-02
  17.075 -0.358E-02  0.581E-02 -0.119E-02  0.194E-02 -0.119E-02  0.193E-02 -0.119E-02  0.194E-02
  17.085 -0.107E-02  0.404E-02 -0.358E-03  0.135E-02 -0.357E-03  0.135E-02 -0.358E-03  0.135E-02
  17.095  0.242E-02  0.230E-02  0.806E-03  0.766E-03  0.806E-03  0.763E-03  0.806E-03  0.766E-03
  17.105  0.697E-02  0.641E-03  0.232E-02  0.214E-03  0.232E-02  0.212E-03  0.232E-02  0.214E-03
  17.115  0.126E-01 -0.833E-03  0.422E-02 -0.277E-03  0.421E-02 -0.278E-03  0.422E-02 -0.277E-03
  17.125  0.195E-01 -0.203E-02  0.649E-02 -0.678E-03  0.649E-02 -0.678E-03  0.649E-02 -0.678E-03
  17.135  0.274E-01 -0.286E-02  0.914E-02 -0.954E-03  0.913E-02 -0.954E-03  0.914E-02 -0.954E-03
  17.145  0.364E-01 -0.322E-02  0.121E-01 -0.107E-02  0.121E-01 -0.107E-02  0.121E-01 -0.107E-02
  17.155  0.463E-01 -0.301E-02  0.154E-01 -0.100E-02  0.154E-01 -0.100E-02  0.154E-01 -0.100E-02
  17.165  0.570E-01 -0.213E-02  0.190E-01 -0.709E-03  0.190E-01 -0.708E-03  0.190E-01 -0.709E-03
  17.175  0.682E-01 -0.474E-03  0.227E-01 -0.158E-03  0.227E-01 -0.157E-03  0.227E-01 -0.158E-03
  17.185  0.797E-01  0.203E-02  0.266E-01  0.677E-03  0.265E-01  0.678E-03  0.266E-01  0.677E-03
  17.195  0.910E-01  0.546E-02  0.304E-01  0.182E-02  0.303E-01  0.182E-02  0.304E-01  0.182E-02
  17.205  0.102E+00  0.987E-02  0.340E-01  0.329E-02  0.340E-01  0.329E-02  0.340E-01  0.329E-02
  17.215  0.112E+00  0.153E-01  0.374E-01  0.510E-02  0.374E-01  0.510E-02  0.374E-01  0.510E-02
  17.225  0.121E+00  0.217E-01  0.404E-01  0.723E-02  0.404E-01  0.723E-02  0.404E-01  0.723E-02
  17.235  0.129E+00  0.291E-01  0.430E-01  0.969E-02  0.430E-01  0.969E-02  0.430E-01  0.969E-02
  17.245  0.135E+00  0.373E-01  0.450E-01  0.124E-01  0.449E-01  0.124E-01  0.450E-01  0.124E-01
  17.255  0.139E+00  0.463E-01  0.463E-01  0.154E-01  0.463E-01  0.154E-01  0.463E-01  0.154E-01
  17.265  0.141E+00  0.559E-01  0.470E-01  0.186E-01  0.470E-01  0.186E-01  0.470E-01  0.186E-01
  17.275  0.141E+00  0.658E-01  0.470E-01  0.219E-01  0.469E-01  0.219E-01  0.470E-01  0.219E-01
  17.285  0.139E+00  0.759E-01  0.462E-01  0.253E-01  0.462E-01  0.253E-01  0.462E-01  0.253E-01
  17.295  0.134E+00  0.858E-01  0.448E-01  0.286E-01  0.448E-01  0.286E-01  0.448E-01  0.286E-01
  17.305  0.128E+00  0.953E-01  0.428E-01  0.318E-01  0.428E-01  0.318E-01  0.428E-01  0.318E-01
  17.315  0.121E+00  0.104E+00  0.403E-01  0.347E-01  0.402E-01  0.347E-01  0.403E-01  0.347E-01
  17.325  0.112E+00  0.112E+00  0.373E-01  0.373E-01  0.373E-01  0.373E-01  0.373E-01  0.373E-01
  17.335  0.102E+00  0.118E+00  0.339E-01  0.395E-01  0.339E-01  0.395E-01  0.339E-01  0.395E-01
  17.345  0.911E-01  0.124E+00  0.304E-01  0.412E-01  0.304E-01  0.412E-01  0.304E-01  0.412E-01
  17.355  0.801E-01  0.127E+00  0.267E-01  0.423E-01  0.267E-01  0.423E-01  0.267E-01  0.423E-01
  17.365  0.691E-01  0.129E+00  0.230E-01  0.429E-01  0.230E-01  0.429E-01  0.230E-01  0.429E-01
  17.375  0.584E-01  0.129E+00  0.195E-01  0.429E-01  0.194E-01  0.429E-01  0.195E-01  0.429E-01
  17.385  0.482E-01  0.127E+00  0.161E-01  0.423E-01  0.161E-01  0.423E-01  0.161E-01  0.423E-01
  17.395  0.388E-01  0.123E+00  0.129E-01  0.411E-01  0.129E-01  0.411E-01  0.129E-01  0.411E-01
  17.405  0.304E-01  0.118E+00  0.101E-01  0.394E-01  0.101E-01  0.394E-01  0.101E-01  0.394E-01
  17.415  0.231E-01  0.112E+00  0.770E-02  0.373E-01  0.770E-02  0.373E-01  0.770E-02  0.373E-01
  17.425  0.170E-01  0.104E+00  0.567E-02  0.348E-01  0.567E-02  0.348E-01  0.567E-02  0.348E-01
  17.435  0.122E-01  0.960E-01  0.405E-02  0.320E-01  0.405E-02  0.320E-01  0.405E-02  0.320E-01
  17.445  0.856E-02  0.870E-01  0.285E-02  0.290E-01  0.285E-02  0.290E-01  0.285E-02  0.290E-01
  17.455  0.617E-02  0.776E-01  0.206E-02  0.259E-01  0.205E-02  0.259E-01  0.206E-02  0.259E-01
  17.465  0.492E-02  0.682E-01  0.164E-02  0.227E-01  0.164E-02  0.227E-01  0.164E-02  0.227E-01
  17.475  0.472E-02  0.590E-01  0.157E-02  0.197E-01  0.157E-02  0.197E-01  0.157E-02  0.197E-01
  17.485  0.545E-02  0.502E-01  0.182E-02  0.167E-01  0.182E-02  0.167E-01  0.182E-02  0.167E-01
  17.495  0.697E-02  0.420E-01  0.232E-02  0.140E-01  0.232E-02  0.140E-01  0.232E-02  0.140E-01
  17.505  0.913E-02  0.345E-01  0.304E-02  0.115E-01  0.304E-02  0.115E-01  0.304E-02  0.115E-01
  17.515  0.118E-01  0.280E-01  0.393E-02  0.932E-02  0.393E-02  0.931E-02  0.393E-02  0.932E-02
  17.525  0.148E-01  0.224E-01  0.493E-02  0.745E-02  0.493E-02  0.745E-02  0.493E-02  0.745E-02
  17.535  0.180E-01  0.178E-01  0.599E-02  0.593E-02  0.599E-02  0.592E-02  0.599E-02  0.593E-02
  17.545  0.212E-01  0.143E-01  0.708E-02  0.475E-02  0.708E-02  0.475E-02  0.708E-02  0.475E-02
  17.555  0.245E-01  0.118E-01  0.816E-02  0.392E-02  0.816E-02  0.392E-02  0.816E-02  0.392E-02
  17.565  0.276E-01  0.103E-01  0.919E-02  0.342E-02  0.919E-02  0.342E-02  0.919E-02  0.342E-02
  17.575  0.305E-01  0.971E-02  0.102E-01  0.324E-02  0.102E-01  0.324E-02  0.102E-01  0.324E-02
  17.585  0.332E-01  0.100E-01  0.111E-01  0.334E-02  0.111E-01  0.334E-02  0.111E-01  0.334E-02
  17.595  0.357E-01  0.111E-01  0.119E-01  0.369E-02  0.119E-01  0.369E-02  0.119E-01  0.369E-02
  17.605  0.379E-01  0.128E-01  0.126E-01  0.426E-02  0.126E-01  0.426E-02  0.126E-01  0.426E-02
  17.615  0.400E-01  0.150E-01  0.133E-01  0.501E-02  0.133E-01  0.501E-02  0.133E-01  0.501E-02
  17.625  0.420E-01  0.177E-01  0.140E-01  0.590E-02  0.140E-01  0.590E-02  0.140E-01  0.590E-02
  17.635  0.439E-01  0.207E-01  0.147E-01  0.689E-02  0.146E-01  0.689E-02  0.147E-01  0.689E-02
  17.645  0.458E-01  0.238E-01  0.153E-01  0.794E-02  0.153E-01  0.794E-02  0.153E-01  0.794E-02
  17.655  0.477E-01  0.271E-01  0.159E-01  0.903E-02  0.159E-01  0.902E-02  0.159E-01  0.903E-02
  17.665  0.497E-01  0.304E-01  0.166E-01  0.101E-01  0.165E-01  0.101E-01  0.166E-01  0.101E-01
  17.675  0.516E-01  0.336E-01  0.172E-01  0.112E-01  0.172E-01  0.112E-01  0.172E-01  0.112E-01
  17.685  0.534E-01  0.367E-01  0.178E-01  0.123E-01  0.178E-01  0.122E-01  0.178E-01  0.123E-01
  17.695  0.552E-01  0.398E-01  0.184E-01  0.133E-01  0.184E-01  0.132E-01  0.184E-01  0.133E-01
  17.705  0.567E-01  0.427E-01  0.189E-01  0.142E-01  0.189E-01  0.142E-01  0.189E-01  0.142E-01
  17.715  0.579E-01  0.454E-01  0.193E-01  0.151E-01  0.193E-01  0.151E-01  0.193E-01  0.151E-01
  17.725  0.587E-01  0.480E-01  0.196E-01  0.160E-01  0.196E-01  0.160E-01  0.196E-01  0.160E-01
  17.735  0.590E-01  0.504E-01  0.197E-01  0.168E-01  0.197E-01  0.168E-01  0.197E-01  0.168E-01
  17.745  0.587E-01  0.527E-01  0.196E-01  0.176E-01  0.195E-01  0.175E-01  0.196E-01  0.176E-01
  17.755  0.576E-01  0.547E-01  0.192E-01  0.183E-01  0.192E-01  0.182E-01  0.192E-01  0.183E-01
  17.765  0.558E-01  0.565E-01  0.186E-01  0.189E-01  0.186E-01  0.188E-01  0.186E-01  0.189E-01
  17.775  0.533E-01  0.580E-01  0.178E-01  0.194E-01  0.178E-01  0.193E-01  0.178E-01  0.194E-01
  17.785  0.501E-01  0.592E-01  0.167E-01  0.197E-01  0.167E-01  0.197E-01  0.167E-01  0.197E-01
  17.795  0.462E-01  0.599E-01  0.154E-01  0.200E-01  0.154E-01  0.200E-01  0.154E-01  0.200E-01
  17.805  0.418E-01  0.601E-01  0.139E-01  0.200E-01  0.139E-01  0.200E-01  0.139E-01  0.200E-01
  17.815  0.370E-01  0.597E-01  0.123E-01  0.199E-01  0.123E-01  0.199E-01  0.123E-01  0.199E-01
  17.825  0.319E-01  0.587E-01  0.106E-01  0.196E-01  0.106E-01  0.196E-01  0.106E-01  0.196E-01
  17.835  0.266E-01  0.571E-01  0.887E-02  0.190E-01  0.890E-02  0.190E-01  0.887E-02  0.190E-01
  17.845  0.214E-01  0.548E-01  0.714E-02  0.183E-01  0.716E-02  0.183E-01  0.714E-02  0.183E-01
  17.855  0.164E-01  0.518E-01  0.546E-02  0.173E-01  0.548E-02  0.173E-01  0.546E-02  0.173E-01
  17.865  0.116E-01  0.483E-01  0.387E-02  0.161E-01  0.389E-02  0.161E-01  0.387E-02  0.161E-01
  17.875  0.728E-02  0.442E-01  0.242E-02  0.147E-01  0.244E-02  0.148E-01  0.242E-02  0.147E-01
  17.885  0.342E-02  0.397E-01  0.113E-02  0.132E-01  0.115E-02  0.133E-01  0.113E-02  0.132E-01
  17.895  0.152E-03  0.349E-01  0.457E-04  0.116E-01  0.608E-04  0.117E-01  0.457E-04  0.116E-01
  17.905 -0.246E-02  0.300E-01 -0.824E-03  0.999E-02 -0.814E-03  0.100E-01 -0.824E-03  0.999E-02
  17.915 -0.436E-02  0.250E-01 -0.146E-02  0.831E-02 -0.145E-02  0.834E-02 -0.146E-02  0.831E-02
  17.925 -0.550E-02  0.200E-01 -0.183E-02  0.667E-02 -0.184E-02  0.669E-02 -0.183E-02  0.667E-02
  17.935 -0.583E-02  0.153E-01 -0.194E-02  0.509E-02 -0.195E-02  0.511E-02 -0.194E-02  0.509E-02
  17.945 -0.530E-02  0.108E-01 -0.176E-02  0.360E-02 -0.178E-02  0.363E-02 -0.176E-02  0.360E-02
  17.955 -0.389E-02  0.676E-02 -0.129E-02  0.225E-02 -0.132E-02  0.227E-02 -0.129E-02  0.225E-02
  17.965 -0.157E-02  0.314E-02 -0.509E-03  0.104E-02 -0.555E-03  0.106E-02 -0.509E-03  0.104E-02
  17.975  0.167E-02  0.931E-05  0.577E-03 -0.318E-05  0.517E-03  0.157E-04  0.577E-03 -0.318E-05
  17.985  0.583E-02 -0.258E-02  0.197E-02 -0.864E-03  0.189E-02 -0.848E-03  0.197E-02 -0.864E-03
  17.995  0.109E-01 -0.459E-02  0.365E-02 -0.153E-02  0.357E-02 -0.152E-02  0.365E-02 -0.153E-02
  18.005  0.167E-01 -0.599E-02  0.561E-02 -0.200E-02  0.551E-02 -0.199E-02  0.561E-02 -0.200E-02
  18.015  0.233E-01 -0.677E-02  0.781E-02 -0.225E-02  0.770E-02 -0.226E-02  0.781E-02 -0.225E-02
  18.025  0.305E-01 -0.687E-02  0.102E-01 -0.229E-02  0.101E-01 -0.230E-02  0.102E-01 -0.229E-02
  18.035  0.380E-01 -0.628E-02  0.127E-01 -0.209E-02  0.126E-01 -0.211E-02  0.127E-01 -0.209E-02
  18.045  0.457E-01 -0.496E-02  0.153E-01 -0.164E-02  0.152E-01 -0.167E-02  0.153E-01 -0.164E-02
  18.055  0.534E-01 -0.286E-02  0.178E-01 -0.939E-03  0.177E-01 -0.979E-03  0.178E-01 -0.939E-03
  18.065  0.607E-01  0.464E-04  0.203E-01  0.332E-04  0.202E-01 -0.201E-04  0.203E-01  0.332E-04
  18.075  0.674E-01  0.377E-02  0.225E-01  0.128E-02  0.224E-01  0.121E-02  0.225E-01  0.128E-02
  18.085  0.732E-01  0.831E-02  0.244E-01  0.280E-02  0.244E-01  0.272E-02  0.244E-01  0.280E-02
  18.095  0.779E-01  0.136E-01  0.260E-01  0.458E-02  0.259E-01  0.448E-02  0.260E-01  0.458E-02
  18.105  0.814E-01  0.197E-01  0.271E-01  0.660E-02  0.271E-01  0.650E-02  0.271E-01  0.660E-02
  18.115  0.834E-01  0.264E-01  0.278E-01  0.883E-02  0.278E-01  0.872E-02  0.278E-01  0.883E-02
  18.125  0.839E-01  0.335E-01  0.280E-01  0.112E-01  0.280E-01  0.111E-01  0.280E-01  0.112E-01
  18.135  0.830E-01  0.410E-01  0.276E-01  0.137E-01  0.277E-01  0.136E-01  0.276E-01  0.137E-01
  18.145  0.807E-01  0.485E-01  0.269E-01  0.162E-01  0.269E-01  0.161E-01  0.269E-01  0.162E-01
  18.155  0.772E-01  0.558E-01  0.257E-01  0.187E-01  0.258E-01  0.185E-01  0.257E-01  0.187E-01
  18.165  0.729E-01  0.627E-01  0.243E-01  0.210E-01  0.243E-01  0.208E-01  0.243E-01  0.210E-01
  18.175  0.679E-01  0.689E-01  0.226E-01  0.230E-01  0.227E-01  0.229E-01  0.226E-01  0.230E-01
  18.185  0.626E-01  0.742E-01  0.209E-01  0.247E-01  0.209E-01  0.247E-01  0.209E-01  0.247E-01
  18.195  0.575E-01  0.782E-01  0.191E-01  0.261E-01  0.192E-01  0.260E-01  0.191E-01  0.261E-01
  18.205  0.527E-01  0.809E-01  0.176E-01  0.270E-01  0.176E-01  0.269E-01  0.176E-01  0.270E-01
  18.215  0.487E-01  0.821E-01  0.162E-01  0.274E-01  0.163E-01  0.274E-01  0.162E-01  0.274E-01
  18.225  0.456E-01  0.818E-01  0.152E-01  0.273E-01  0.152E-01  0.273E-01  0.152E-01  0.273E-01
  18.235  0.438E-01  0.800E-01  0.146E-01  0.267E-01  0.146E-01  0.267E-01  0.146E-01  0.267E-01
  18.245  0.432E-01  0.769E-01  0.144E-01  0.256E-01  0.144E-01  0.257E-01  0.144E-01  0.256E-01
  18.255  0.439E-01  0.727E-01  0.146E-01  0.242E-01  0.146E-01  0.243E-01  0.146E-01  0.242E-01
  18.265  0.458E-01  0.676E-01  0.153E-01  0.225E-01  0.152E-01  0.226E-01  0.153E-01  0.225E-01
  18.275  0.488E-01  0.619E-01  0.163E-01  0.206E-01  0.162E-01  0.207E-01  0.163E-01  0.206E-01
  18.285  0.526E-01  0.559E-01  0.176E-01  0.186E-01  0.175E-01  0.187E-01  0.176E-01  0.186E-01
  18.295  0.571E-01  0.501E-01  0.191E-01  0.167E-01  0.190E-01  0.168E-01  0.191E-01  0.167E-01
  18.305  0.618E-01  0.448E-01  0.206E-01  0.149E-01  0.205E-01  0.150E-01  0.206E-01  0.149E-01
  18.315  0.665E-01  0.402E-01  0.222E-01  0.134E-01  0.221E-01  0.134E-01  0.222E-01  0.134E-01
  18.325  0.708E-01  0.367E-01  0.236E-01  0.122E-01  0.236E-01  0.123E-01  0.236E-01  0.122E-01
  18.335  0.746E-01  0.345E-01  0.249E-01  0.115E-01  0.248E-01  0.115E-01  0.249E-01  0.115E-01
  18.345  0.775E-01  0.337E-01  0.258E-01  0.112E-01  0.258E-01  0.112E-01  0.258E-01  0.112E-01
  18.355  0.793E-01  0.343E-01  0.265E-01  0.114E-01  0.264E-01  0.114E-01  0.265E-01  0.114E-01
  18.365  0.801E-01  0.363E-01  0.267E-01  0.121E-01  0.267E-01  0.121E-01  0.267E-01  0.121E-01
  18.375  0.797E-01  0.397E-01  0.266E-01  0.132E-01  0.266E-01  0.132E-01  0.266E-01  0.132E-01
  18.385  0.783E-01  0.441E-01  0.261E-01  0.147E-01  0.261E-01  0.146E-01  0.261E-01  0.147E-01
  18.395  0.758E-01  0.494E-01  0.253E-01  0.165E-01  0.253E-01  0.164E-01  0.253E-01  0.165E-01
  18.405  0.726E-01  0.553E-01  0.242E-01  0.185E-01  0.243E-01  0.184E-01  0.242E-01  0.185E-01
  18.415  0.688E-01  0.615E-01  0.229E-01  0.205E-01  0.230E-01  0.204E-01  0.229E-01  0.205E-01
  18.425  0.645E-01  0.676E-01  0.215E-01  0.226E-01  0.216E-01  0.225E-01  0.215E-01  0.226E-01
  18.435  0.602E-01  0.733E-01  0.200E-01  0.245E-01  0.201E-01  0.244E-01  0.200E-01  0.245E-01
  18.445  0.559E-01  0.784E-01  0.186E-01  0.262E-01  0.187E-01  0.261E-01  0.186E-01  0.262E-01
  18.455  0.519E-01  0.825E-01  0.173E-01  0.275E-01  0.174E-01  0.275E-01  0.173E-01  0.275E-01
  18.465  0.483E-01  0.856E-01  0.161E-01  0.285E-01  0.162E-01  0.285E-01  0.161E-01  0.285E-01
  18.475  0.451E-01  0.874E-01  0.150E-01  0.291E-01  0.151E-01  0.291E-01  0.150E-01  0.291E-01
  18.485  0.426E-01  0.880E-01  0.142E-01  0.293E-01  0.143E-01  0.293E-01  0.142E-01  0.293E-01
  18.495  0.406E-01  0.872E-01  0.135E-01  0.291E-01  0.136E-01  0.291E-01  0.135E-01  0.291E-01
  18.505  0.391E-01  0.853E-01  0.130E-01  0.284E-01  0.131E-01  0.285E-01  0.130E-01  0.284E-01
  18.515  0.381E-01  0.823E-01  0.127E-01  0.274E-01  0.127E-01  0.275E-01  0.127E-01  0.274E-01
  18.525  0.375E-01  0.784E-01  0.125E-01  0.261E-01  0.125E-01  0.262E-01  0.125E-01  0.261E-01
  18.535  0.372E-01  0.738E-01  0.124E-01  0.246E-01  0.124E-01  0.247E-01  0.124E-01  0.246E-01
  18.545  0.371E-01  0.687E-01  0.124E-01  0.229E-01  0.124E-01  0.230E-01  0.124E-01  0.229E-01
  18.555  0.373E-01  0.634E-01  0.124E-01  0.211E-01  0.124E-01  0.212E-01  0.124E-01  0.211E-01
  18.565  0.377E-01  0.580E-01  0.126E-01  0.193E-01  0.126E-01  0.194E-01  0.126E-01  0.193E-01
  18.575  0.383E-01  0.528E-01  0.128E-01  0.176E-01  0.128E-01  0.177E-01  0.128E-01  0.176E-01
  18.585  0.392E-01  0.480E-01  0.131E-01  0.160E-01  0.131E-01  0.161E-01  0.131E-01  0.160E-01
  18.595  0.407E-01  0.436E-01  0.136E-01  0.145E-01  0.135E-01  0.146E-01  0.136E-01  0.145E-01
  18.605  0.427E-01  0.398E-01  0.142E-01  0.133E-01  0.142E-01  0.133E-01  0.142E-01  0.133E-01
  18.615  0.454E-01  0.367E-01  0.151E-01  0.122E-01  0.151E-01  0.123E-01  0.151E-01  0.122E-01
  18.625  0.490E-01  0.344E-01  0.163E-01  0.114E-01  0.163E-01  0.115E-01  0.163E-01  0.114E-01
  18.635  0.536E-01  0.328E-01  0.179E-01  0.109E-01  0.178E-01  0.109E-01  0.179E-01  0.109E-01
  18.645  0.592E-01  0.319E-01  0.197E-01  0.106E-01  0.197E-01  0.107E-01  0.197E-01  0.106E-01
  18.655  0.659E-01  0.319E-01  0.220E-01  0.106E-01  0.219E-01  0.107E-01  0.220E-01  0.106E-01
  18.665  0.734E-01  0.327E-01  0.245E-01  0.109E-01  0.244E-01  0.109E-01  0.245E-01  0.109E-01
  18.675  0.818E-01  0.344E-01  0.273E-01  0.115E-01  0.272E-01  0.115E-01  0.273E-01  0.115E-01
  18.685  0.907E-01  0.369E-01  0.302E-01  0.123E-01  0.302E-01  0.123E-01  0.302E-01  0.123E-01
  18.695  0.998E-01  0.403E-01  0.333E-01  0.134E-01  0.332E-01  0.134E-01  0.333E-01  0.134E-01
  18.705  0.109E+00  0.446E-01  0.363E-01  0.149E-01  0.362E-01  0.148E-01  0.363E-01  0.149E-01
  18.715  0.117E+00  0.497E-01  0.390E-01  0.166E-01  0.390E-01  0.166E-01  0.390E-01  0.166E-01
  18.725  0.124E+00  0.558E-01  0.415E-01  0.186E-01  0.414E-01  0.186E-01  0.415E-01  0.186E-01
  18.735  0.130E+00  0.626E-01  0.435E-01  0.209E-01  0.435E-01  0.209E-01  0.435E-01  0.209E-01
  18.745  0.135E+00  0.702E-01  0.449E-01  0.234E-01  0.449E-01  0.234E-01  0.449E-01  0.234E-01
  18.755  0.137E+00  0.782E-01  0.457E-01  0.261E-01  0.457E-01  0.261E-01  0.457E-01  0.261E-01
  18.765  0.137E+00  0.867E-01  0.457E-01  0.289E-01  0.457E-01  0.289E-01  0.457E-01  0.289E-01
  18.775  0.135E+00  0.952E-01  0.450E-01  0.317E-01  0.451E-01  0.317E-01  0.450E-01  0.317E-01
  18.785  0.131E+00  0.103E+00  0.436E-01  0.345E-01  0.436E-01  0.345E-01  0.436E-01  0.345E-01
  18.795  0.125E+00  0.111E+00  0.415E-01  0.371E-01  0.415E-01  0.371E-01  0.415E-01  0.371E-01
  18.805  0.116E+00  0.118E+00  0.388E-01  0.394E-01  0.388E-01  0.394E-01  0.388E-01  0.394E-01
  18.815  0.107E+00  0.124E+00  0.355E-01  0.414E-01  0.356E-01  0.413E-01  0.355E-01  0.414E-01
  18.825  0.958E-01  0.128E+00  0.319E-01  0.428E-01  0.320E-01  0.428E-01  0.319E-01  0.428E-01
  18.835  0.842E-01  0.131E+00  0.280E-01  0.437E-01  0.281E-01  0.437E-01  0.280E-01  0.437E-01
  18.845  0.723E-01  0.132E+00  0.241E-01  0.440E-01  0.242E-01  0.440E-01  0.241E-01  0.440E-01
  18.855  0.604E-01  0.131E+00  0.201E-01  0.436E-01  0.202E-01  0.436E-01  0.201E-01  0.436E-01
  18.865  0.489E-01  0.128E+00  0.163E-01  0.426E-01  0.164E-01  0.426E-01  0.163E-01  0.426E-01
  18.875  0.382E-01  0.123E+00  0.127E-01  0.409E-01  0.128E-01  0.409E-01  0.127E-01  0.409E-01
  18.885  0.283E-01  0.116E+00  0.942E-02  0.387E-01  0.948E-02  0.387E-01  0.942E-02  0.387E-01
  18.895  0.196E-01  0.108E+00  0.650E-02  0.359E-01  0.656E-02  0.360E-01  0.650E-02  0.359E-01
  18.905  0.120E-01  0.983E-01  0.398E-02  0.327E-01  0.403E-02  0.328E-01  0.398E-02  0.327E-01
  18.915  0.562E-02  0.879E-01  0.186E-02  0.293E-01  0.190E-02  0.294E-01  0.186E-02  0.293E-01
  18.925  0.433E-03  0.770E-01  0.133E-03  0.257E-01  0.167E-03  0.257E-01  0.133E-03  0.257E-01
  18.935 -0.364E-02  0.660E-01 -0.122E-02  0.220E-01 -0.119E-02  0.220E-01 -0.122E-02  0.220E-01
  18.945 -0.669E-02  0.550E-01 -0.224E-02  0.183E-01 -0.222E-02  0.184E-01 -0.224E-02  0.183E-01
  18.955 -0.885E-02  0.444E-01 -0.295E-02  0.148E-01 -0.294E-02  0.149E-01 -0.295E-02  0.148E-01
  18.965 -0.102E-01  0.346E-01 -0.341E-02  0.115E-01 -0.340E-02  0.116E-01 -0.341E-02  0.115E-01
  18.975 -0.109E-01  0.256E-01 -0.365E-02  0.850E-02 -0.364E-02  0.857E-02 -0.365E-02  0.850E-02
  18.985 -0.111E-01  0.175E-01 -0.369E-02  0.583E-02 -0.369E-02  0.589E-02 -0.369E-02  0.583E-02
  18.995 -0.107E-01  0.106E-01 -0.357E-02  0.352E-02 -0.357E-02  0.357E-02 -0.357E-02  0.352E-02
  19.005 -0.988E-02  0.475E-02 -0.329E-02  0.157E-02 -0.330E-02  0.161E-02 -0.329E-02  0.157E-02
  19.015 -0.863E-02 -0.352E-04 -0.288E-02 -0.239E-04 -0.288E-02  0.125E-04 -0.288E-02 -0.239E-04
  19.025 -0.696E-02 -0.380E-02 -0.232E-02 -0.128E-02 -0.232E-02 -0.125E-02 -0.232E-02 -0.128E-02
  19.035 -0.486E-02 -0.662E-02 -0.162E-02 -0.221E-02 -0.162E-02 -0.219E-02 -0.162E-02 -0.221E-02
  19.045 -0.229E-02 -0.858E-02 -0.763E-03 -0.286E-02 -0.767E-03 -0.285E-02 -0.763E-03 -0.286E-02
  19.055  0.751E-03 -0.977E-02  0.251E-03 -0.326E-02  0.248E-03 -0.325E-02  0.251E-03 -0.326E-02
  19.065  0.429E-02 -0.103E-01  0.143E-02 -0.342E-02  0.143E-02 -0.342E-02  0.143E-02 -0.342E-02
  19.075  0.831E-02 -0.101E-01  0.277E-02 -0.338E-02  0.277E-02 -0.338E-02  0.277E-02 -0.338E-02
  19.085  0.128E-01 -0.945E-02  0.427E-02 -0.315E-02  0.427E-02 -0.315E-02  0.427E-02 -0.315E-02
  19.095  0.177E-01 -0.820E-02  0.590E-02 -0.273E-02  0.590E-02 -0.274E-02  0.590E-02 -0.273E-02
  19.105  0.229E-01 -0.643E-02  0.763E-02 -0.214E-02  0.763E-02 -0.214E-02  0.763E-02 -0.214E-02
  19.115  0.283E-01 -0.412E-02  0.944E-02 -0.137E-02  0.944E-02 -0.138E-02  0.944E-02 -0.137E-02
  19.125  0.338E-01 -0.129E-02  0.113E-01 -0.428E-03  0.113E-01 -0.433E-03  0.113E-01 -0.428E-03
  19.135  0.391E-01  0.207E-02  0.130E-01  0.692E-03  0.130E-01  0.688E-03  0.130E-01  0.692E-03
  19.145  0.441E-01  0.595E-02  0.147E-01  0.199E-02  0.147E-01  0.198E-02  0.147E-01  0.199E-02
  19.155  0.487E-01  0.103E-01  0.162E-01  0.344E-02  0.162E-01  0.344E-02  0.162E-01  0.344E-02
  19.165  0.526E-01  0.151E-01  0.175E-01  0.504E-02  0.175E-01  0.504E-02  0.175E-01  0.504E-02
  19.175  0.556E-01  0.203E-01  0.185E-01  0.676E-02  0.186E-01  0.676E-02  0.185E-01  0.676E-02
  19.185  0.578E-01  0.257E-01  0.193E-01  0.856E-02  0.193E-01  0.856E-02  0.193E-01  0.856E-02
  19.195  0.591E-01  0.312E-01  0.197E-01  0.104E-01  0.197E-01  0.104E-01  0.197E-01  0.104E-01
  19.205  0.593E-01  0.366E-01  0.198E-01  0.122E-01  0.198E-01  0.122E-01  0.198E-01  0.122E-01
  19.215  0.588E-01  0.418E-01  0.196E-01  0.139E-01  0.196E-01  0.139E-01  0.196E-01  0.139E-01
  19.225  0.574E-01  0.466E-01  0.192E-01  0.155E-01  0.191E-01  0.155E-01  0.192E-01  0.155E-01
  19.235  0.556E-01  0.507E-01  0.185E-01  0.169E-01  0.185E-01  0.169E-01  0.185E-01  0.169E-01
  19.245  0.535E-01  0.541E-01  0.178E-01  0.180E-01  0.178E-01  0.180E-01  0.178E-01  0.180E-01
  19.255  0.513E-01  0.565E-01  0.171E-01  0.188E-01  0.171E-01  0.188E-01  0.171E-01  0.188E-01
  19.265  0.495E-01  0.580E-01  0.165E-01  0.193E-01  0.165E-01  0.193E-01  0.165E-01  0.193E-01
  19.275  0.482E-01  0.584E-01  0.161E-01  0.195E-01  0.161E-01  0.195E-01  0.161E-01  0.195E-01
  19.285  0.478E-01  0.578E-01  0.160E-01  0.193E-01  0.159E-01  0.193E-01  0.160E-01  0.193E-01
  19.295  0.486E-01  0.564E-01  0.162E-01  0.188E-01  0.162E-01  0.188E-01  0.162E-01  0.188E-01
  19.305  0.506E-01  0.542E-01  0.169E-01  0.181E-01  0.168E-01  0.181E-01  0.169E-01  0.181E-01
  19.315  0.539E-01  0.515E-01  0.180E-01  0.172E-01  0.180E-01  0.172E-01  0.180E-01  0.172E-01
  19.325  0.587E-01  0.485E-01  0.196E-01  0.162E-01  0.196E-01  0.162E-01  0.196E-01  0.162E-01
  19.335  0.649E-01  0.457E-01  0.216E-01  0.152E-01  0.216E-01  0.152E-01  0.216E-01  0.152E-01
  19.345  0.723E-01  0.432E-01  0.241E-01  0.144E-01  0.241E-01  0.144E-01  0.241E-01  0.144E-01
  19.355  0.806E-01  0.414E-01  0.269E-01  0.138E-01  0.269E-01  0.138E-01  0.269E-01  0.138E-01
  19.365  0.897E-01  0.405E-01  0.299E-01  0.135E-01  0.299E-01  0.135E-01  0.299E-01  0.135E-01
  19.375  0.992E-01  0.409E-01  0.331E-01  0.137E-01  0.330E-01  0.136E-01  0.331E-01  0.137E-01
  19.385  0.109E+00  0.427E-01  0.362E-01  0.143E-01  0.362E-01  0.142E-01  0.362E-01  0.143E-01
  19.395  0.118E+00  0.461E-01  0.392E-01  0.154E-01  0.392E-01  0.153E-01  0.392E-01  0.154E-01
  19.405  0.126E+00  0.510E-01  0.420E-01  0.170E-01  0.420E-01  0.170E-01  0.420E-01  0.170E-01
  19.415  0.133E+00  0.573E-01  0.444E-01  0.191E-01  0.444E-01  0.191E-01  0.444E-01  0.191E-01
  19.425  0.139E+00  0.651E-01  0.463E-01  0.217E-01  0.463E-01  0.217E-01  0.463E-01  0.217E-01
  19.435  0.143E+00  0.740E-01  0.476E-01  0.247E-01  0.477E-01  0.247E-01  0.476E-01  0.247E-01
  19.445  0.145E+00  0.838E-01  0.483E-01  0.280E-01  0.484E-01  0.279E-01  0.483E-01  0.280E-01
  19.455  0.145E+00  0.941E-01  0.484E-01  0.314E-01  0.484E-01  0.314E-01  0.484E-01  0.314E-01
  19.465  0.143E+00  0.105E+00  0.477E-01  0.349E-01  0.478E-01  0.348E-01  0.477E-01  0.349E-01
  19.475  0.139E+00  0.115E+00  0.464E-01  0.382E-01  0.465E-01  0.382E-01  0.464E-01  0.382E-01
  19.485  0.133E+00  0.124E+00  0.445E-01  0.414E-01  0.445E-01  0.414E-01  0.445E-01  0.414E-01
  19.495  0.126E+00  0.132E+00  0.420E-01  0.441E-01  0.420E-01  0.441E-01  0.420E-01  0.441E-01
  19.505  0.117E+00  0.139E+00  0.390E-01  0.464E-01  0.390E-01  0.464E-01  0.390E-01  0.464E-01
  19.515  0.107E+00  0.144E+00  0.357E-01  0.481E-01  0.357E-01  0.481E-01  0.357E-01  0.481E-01
  19.525  0.963E-01  0.147E+00  0.321E-01  0.491E-01  0.321E-01  0.492E-01  0.321E-01  0.491E-01
  19.535  0.852E-01  0.148E+00  0.284E-01  0.494E-01  0.284E-01  0.495E-01  0.284E-01  0.494E-01
  19.545  0.741E-01  0.147E+00  0.247E-01  0.490E-01  0.247E-01  0.490E-01  0.247E-01  0.490E-01
  19.555  0.634E-01  0.143E+00  0.211E-01  0.478E-01  0.212E-01  0.479E-01  0.211E-01  0.478E-01
  19.565  0.533E-01  0.138E+00  0.177E-01  0.459E-01  0.178E-01  0.460E-01  0.177E-01  0.459E-01
  19.575  0.441E-01  0.130E+00  0.147E-01  0.434E-01  0.147E-01  0.435E-01  0.147E-01  0.434E-01
  19.585  0.360E-01  0.121E+00  0.120E-01  0.404E-01  0.120E-01  0.404E-01  0.120E-01  0.404E-01
  19.595  0.292E-01  0.111E+00  0.971E-02  0.369E-01  0.973E-02  0.370E-01  0.971E-02  0.369E-01
  19.605  0.237E-01  0.995E-01  0.788E-02  0.332E-01  0.790E-02  0.332E-01  0.788E-02  0.332E-01
  19.615  0.195E-01  0.877E-01  0.650E-02  0.292E-01  0.651E-02  0.293E-01  0.650E-02  0.292E-01
  19.625  0.166E-01  0.758E-01  0.554E-02  0.253E-01  0.555E-02  0.253E-01  0.554E-02  0.253E-01
  19.635  0.149E-01  0.641E-01  0.498E-02  0.214E-01  0.498E-02  0.214E-01  0.498E-02  0.214E-01
  19.645  0.143E-01  0.531E-01  0.476E-02  0.177E-01  0.476E-02  0.177E-01  0.476E-02  0.177E-01
  19.655  0.145E-01  0.430E-01  0.482E-02  0.143E-01  0.482E-02  0.143E-01  0.482E-02  0.143E-01
  19.665  0.153E-01  0.340E-01  0.511E-02  0.113E-01  0.511E-02  0.113E-01  0.511E-02  0.113E-01
  19.675  0.167E-01  0.264E-01  0.557E-02  0.878E-02  0.557E-02  0.880E-02  0.557E-02  0.878E-02
  19.685  0.184E-01  0.202E-01  0.613E-02  0.671E-02  0.613E-02  0.673E-02  0.613E-02  0.671E-02
  19.695  0.203E-01  0.154E-01  0.677E-02  0.514E-02  0.677E-02  0.515E-02  0.677E-02  0.514E-02
  19.705  0.224E-01  0.122E-01  0.746E-02  0.405E-02  0.746E-02  0.406E-02  0.746E-02  0.405E-02
  19.715  0.245E-01  0.103E-01  0.818E-02  0.342E-02  0.818E-02  0.342E-02  0.818E-02  0.342E-02
  19.725  0.268E-01  0.962E-02  0.893E-02  0.321E-02  0.894E-02  0.321E-02  0.893E-02  0.321E-02
  19.735  0.293E-01  0.101E-01  0.975E-02  0.336E-02  0.975E-02  0.337E-02  0.975E-02  0.336E-02
  19.745  0.320E-01  0.115E-01  0.107E-01  0.383E-02  0.107E-01  0.383E-02  0.107E-01  0.383E-02
  19.755  0.352E-01  0.137E-01  0.117E-01  0.456E-02  0.117E-01  0.456E-02  0.117E-01  0.456E-02
  19.765  0.389E-01  0.164E-01  0.130E-01  0.548E-02  0.130E-01  0.548E-02  0.130E-01  0.548E-02
  19.775  0.432E-01  0.197E-01  0.144E-01  0.656E-02  0.144E-01  0.656E-02  0.144E-01  0.656E-02
  19.785  0.484E-01  0.233E-01  0.161E-01  0.775E-02  0.161E-01  0.775E-02  0.161E-01  0.775E-02
  19.795  0.543E-01  0.271E-01  0.181E-01  0.903E-02  0.181E-01  0.903E-02  0.181E-01  0.903E-02
  19.805  0.611E-01  0.312E-01  0.203E-01  0.104E-01  0.204E-01  0.104E-01  0.203E-01  0.104E-01
  19.815  0.685E-01  0.354E-01  0.228E-01  0.118E-01  0.228E-01  0.118E-01  0.228E-01  0.118E-01
  19.825  0.765E-01  0.399E-01  0.255E-01  0.133E-01  0.255E-01  0.133E-01  0.255E-01  0.133E-01
  19.835  0.847E-01  0.447E-01  0.282E-01  0.149E-01  0.283E-01  0.149E-01  0.282E-01  0.149E-01
  19.845  0.930E-01  0.497E-01  0.310E-01  0.166E-01  0.310E-01  0.166E-01  0.310E-01  0.166E-01
  19.855  0.101E+00  0.550E-01  0.336E-01  0.183E-01  0.337E-01  0.184E-01  0.336E-01  0.183E-01
  19.865  0.108E+00  0.607E-01  0.361E-01  0.202E-01  0.361E-01  0.202E-01  0.361E-01  0.202E-01
  19.875  0.114E+00  0.668E-01  0.381E-01  0.223E-01  0.381E-01  0.223E-01  0.381E-01  0.223E-01
  19.885  0.119E+00  0.731E-01  0.397E-01  0.243E-01  0.397E-01  0.244E-01  0.397E-01  0.243E-01
  19.895  0.122E+00  0.795E-01  0.408E-01  0.265E-01  0.408E-01  0.265E-01  0.408E-01  0.265E-01
  19.905  0.124E+00  0.860E-01  0.413E-01  0.287E-01  0.413E-01  0.287E-01  0.413E-01  0.287E-01
  19.915  0.124E+00  0.924E-01  0.412E-01  0.308E-01  0.412E-01  0.308E-01  0.412E-01  0.308E-01
  19.925  0.121E+00  0.984E-01  0.405E-01  0.328E-01  0.405E-01  0.328E-01  0.405E-01  0.328E-01
  19.935  0.118E+00  0.104E+00  0.393E-01  0.346E-01  0.393E-01  0.346E-01  0.393E-01  0.346E-01
  19.945  0.113E+00  0.108E+00  0.377E-01  0.361E-01  0.377E-01  0.361E-01  0.377E-01  0.361E-01
  19.955  0.107E+00  0.112E+00  0.358E-01  0.373E-01  0.358E-01  0.373E-01  0.358E-01  0.373E-01
  19.965  0.102E+00  0.114E+00  0.338E-01  0.381E-01  0.339E-01  0.381E-01  0.338E-01  0.381E-01
  19.975  0.957E-01  0.116E+00  0.319E-01  0.385E-01  0.319E-01  0.385E-01  0.319E-01  0.385E-01
  19.985  0.906E-01  0.115E+00  0.302E-01  0.385E-01  0.302E-01  0.385E-01  0.302E-01  0.385E-01
  19.995  0.866E-01  0.114E+00  0.288E-01  0.380E-01  0.289E-01  0.380E-01  0.288E-01  0.380E-01
  20.005  0.840E-01  0.111E+00  0.280E-01  0.371E-01  0.280E-01  0.372E-01  0.280E-01  0.371E-01
  20.015  0.831E-01  0.108E+00  0.277E-01  0.360E-01  0.277E-01  0.360E-01  0.277E-01  0.360E-01
  20.025  0.841E-01  0.104E+00  0.280E-01  0.347E-01  0.281E-01  0.347E-01  0.280E-01  0.347E-01
  20.035  0.870E-01  0.100E+00  0.290E-01  0.333E-01  0.290E-01  0.333E-01  0.290E-01  0.333E-01
  20.045  0.915E-01  0.960E-01  0.305E-01  0.320E-01  0.305E-01  0.320E-01  0.305E-01  0.320E-01
  20.055  0.974E-01  0.926E-01  0.324E-01  0.309E-01  0.325E-01  0.309E-01  0.324E-01  0.309E-01
  20.065  0.104E+00  0.901E-01  0.347E-01  0.300E-01  0.348E-01  0.301E-01  0.347E-01  0.300E-01
  20.075  0.112E+00  0.888E-01  0.372E-01  0.296E-01  0.372E-01  0.296E-01  0.372E-01  0.296E-01
  20.085  0.119E+00  0.890E-01  0.396E-01  0.296E-01  0.396E-01  0.297E-01  0.396E-01  0.296E-01
  20.095  0.125E+00  0.907E-01  0.418E-01  0.302E-01  0.418E-01  0.303E-01  0.418E-01  0.302E-01
  20.105  0.131E+00  0.938E-01  0.436E-01  0.313E-01  0.437E-01  0.313E-01  0.436E-01  0.313E-01
  20.115  0.135E+00  0.983E-01  0.449E-01  0.328E-01  0.450E-01  0.328E-01  0.449E-01  0.328E-01
  20.125  0.137E+00  0.104E+00  0.456E-01  0.346E-01  0.456E-01  0.347E-01  0.456E-01  0.346E-01
  20.135  0.137E+00  0.110E+00  0.455E-01  0.367E-01  0.456E-01  0.368E-01  0.455E-01  0.367E-01
  20.145  0.134E+00  0.117E+00  0.447E-01  0.389E-01  0.447E-01  0.390E-01  0.447E-01  0.389E-01
  20.155  0.130E+00  0.123E+00  0.432E-01  0.411E-01  0.432E-01  0.411E-01  0.432E-01  0.411E-01
  20.165  0.123E+00  0.129E+00  0.410E-01  0.429E-01  0.410E-01  0.430E-01  0.410E-01  0.429E-01
  20.175  0.115E+00  0.133E+00  0.383E-01  0.444E-01  0.383E-01  0.445E-01  0.383E-01  0.444E-01
  20.185  0.105E+00  0.136E+00  0.351E-01  0.454E-01  0.351E-01  0.454E-01  0.351E-01  0.454E-01
  20.195  0.950E-01  0.137E+00  0.317E-01  0.458E-01  0.316E-01  0.458E-01  0.317E-01  0.458E-01
  20.205  0.844E-01  0.136E+00  0.281E-01  0.454E-01  0.281E-01  0.454E-01  0.281E-01  0.454E-01
  20.215  0.740E-01  0.133E+00  0.247E-01  0.444E-01  0.246E-01  0.444E-01  0.247E-01  0.444E-01
  20.225  0.642E-01  0.128E+00  0.214E-01  0.426E-01  0.214E-01  0.426E-01  0.214E-01  0.426E-01
  20.235  0.555E-01  0.121E+00  0.185E-01  0.403E-01  0.185E-01  0.402E-01  0.185E-01  0.403E-01
  20.245  0.481E-01  0.112E+00  0.160E-01  0.374E-01  0.160E-01  0.373E-01  0.160E-01  0.374E-01
  20.255  0.422E-01  0.102E+00  0.141E-01  0.341E-01  0.140E-01  0.341E-01  0.141E-01  0.341E-01
  20.265  0.379E-01  0.918E-01  0.126E-01  0.306E-01  0.126E-01  0.306E-01  0.126E-01  0.306E-01
  20.275  0.352E-01  0.810E-01  0.117E-01  0.270E-01  0.117E-01  0.270E-01  0.117E-01  0.270E-01
  20.285  0.340E-01  0.706E-01  0.113E-01  0.235E-01  0.113E-01  0.235E-01  0.113E-01  0.235E-01
  20.295  0.341E-01  0.608E-01  0.114E-01  0.203E-01  0.114E-01  0.202E-01  0.114E-01  0.203E-01
  20.305  0.352E-01  0.521E-01  0.117E-01  0.174E-01  0.117E-01  0.173E-01  0.117E-01  0.174E-01
  20.315  0.370E-01  0.447E-01  0.123E-01  0.149E-01  0.123E-01  0.149E-01  0.123E-01  0.149E-01
  20.325  0.392E-01  0.390E-01  0.131E-01  0.130E-01  0.131E-01  0.130E-01  0.131E-01  0.130E-01
  20.335  0.415E-01  0.348E-01  0.138E-01  0.116E-01  0.138E-01  0.116E-01  0.138E-01  0.116E-01
  20.345  0.436E-01  0.323E-01  0.145E-01  0.108E-01  0.145E-01  0.108E-01  0.145E-01  0.108E-01
  20.355  0.452E-01  0.313E-01  0.151E-01  0.104E-01  0.151E-01  0.104E-01  0.151E-01  0.104E-01
  20.365  0.462E-01  0.316E-01  0.154E-01  0.105E-01  0.154E-01  0.105E-01  0.154E-01  0.105E-01
  20.375  0.463E-01  0.329E-01  0.154E-01  0.110E-01  0.154E-01  0.110E-01  0.154E-01  0.110E-01
  20.385  0.456E-01  0.350E-01  0.152E-01  0.117E-01  0.152E-01  0.117E-01  0.152E-01  0.117E-01
  20.395  0.440E-01  0.376E-01  0.147E-01  0.125E-01  0.147E-01  0.125E-01  0.147E-01  0.125E-01
  20.405  0.416E-01  0.402E-01  0.139E-01  0.134E-01  0.139E-01  0.134E-01  0.139E-01  0.134E-01
  20.415  0.384E-01  0.427E-01  0.128E-01  0.142E-01  0.128E-01  0.142E-01  0.128E-01  0.142E-01
  20.425  0.348E-01  0.446E-01  0.116E-01  0.149E-01  0.116E-01  0.149E-01  0.116E-01  0.149E-01
  20.435  0.307E-01  0.460E-01  0.102E-01  0.153E-01  0.102E-01  0.153E-01  0.102E-01  0.153E-01
  20.445  0.265E-01  0.465E-01  0.883E-02  0.155E-01  0.883E-02  0.155E-01  0.883E-02  0.155E-01
  20.455  0.223E-01  0.461E-01  0.743E-02  0.154E-01  0.743E-02  0.154E-01  0.743E-02  0.154E-01
  20.465  0.183E-01  0.448E-01  0.610E-02  0.149E-01  0.610E-02  0.149E-01  0.610E-02  0.149E-01
  20.475  0.147E-01  0.426E-01  0.490E-02  0.142E-01  0.490E-02  0.142E-01  0.490E-02  0.142E-01
  20.485  0.116E-01  0.397E-01  0.387E-02  0.132E-01  0.387E-02  0.132E-01  0.387E-02  0.132E-01
  20.495  0.913E-02  0.361E-01  0.304E-02  0.120E-01  0.305E-02  0.120E-01  0.304E-02  0.120E-01
  20.505  0.734E-02  0.321E-01  0.245E-02  0.107E-01  0.245E-02  0.107E-01  0.245E-02  0.107E-01
  20.515  0.626E-02  0.279E-01  0.209E-02  0.930E-02  0.209E-02  0.930E-02  0.209E-02  0.930E-02
  20.525  0.588E-02  0.236E-01  0.196E-02  0.787E-02  0.196E-02  0.788E-02  0.196E-02  0.787E-02
  20.535  0.615E-02  0.195E-01  0.205E-02  0.649E-02  0.205E-02  0.650E-02  0.205E-02  0.649E-02
  20.545  0.699E-02  0.157E-01  0.233E-02  0.522E-02  0.233E-02  0.522E-02  0.233E-02  0.522E-02
  20.555  0.833E-02  0.123E-01  0.278E-02  0.411E-02  0.278E-02  0.411E-02  0.278E-02  0.411E-02
  20.565  0.100E-01  0.958E-02  0.335E-02  0.319E-02  0.335E-02  0.319E-02  0.335E-02  0.319E-02
  20.575  0.120E-01  0.751E-02  0.401E-02  0.250E-02  0.401E-02  0.251E-02  0.401E-02  0.250E-02
  20.585  0.142E-01  0.617E-02  0.472E-02  0.206E-02  0.472E-02  0.206E-02  0.472E-02  0.206E-02
  20.595  0.164E-01  0.556E-02  0.547E-02  0.185E-02  0.547E-02  0.185E-02  0.547E-02  0.185E-02
  20.605  0.186E-01  0.567E-02  0.621E-02  0.189E-02  0.621E-02  0.189E-02  0.621E-02  0.189E-02
  20.615  0.208E-01  0.644E-02  0.694E-02  0.215E-02  0.694E-02  0.215E-02  0.694E-02  0.215E-02
  20.625  0.230E-01  0.779E-02  0.766E-02  0.260E-02  0.766E-02  0.260E-02  0.766E-02  0.260E-02
  20.635  0.251E-01  0.964E-02  0.838E-02  0.321E-02  0.838E-02  0.321E-02  0.838E-02  0.321E-02
  20.645  0.273E-01  0.119E-01  0.911E-02  0.396E-02  0.911E-02  0.396E-02  0.911E-02  0.396E-02
  20.655  0.297E-01  0.144E-01  0.990E-02  0.481E-02  0.990E-02  0.481E-02  0.990E-02  0.481E-02
  20.665  0.323E-01  0.172E-01  0.108E-01  0.572E-02  0.108E-01  0.572E-02  0.108E-01  0.572E-02
  20.675  0.354E-01  0.200E-01  0.118E-01  0.668E-02  0.118E-01  0.668E-02  0.118E-01  0.668E-02
  20.685  0.390E-01  0.230E-01  0.130E-01  0.765E-02  0.130E-01  0.765E-02  0.130E-01  0.765E-02
  20.695  0.433E-01  0.259E-01  0.144E-01  0.863E-02  0.144E-01  0.863E-02  0.144E-01  0.863E-02
  20.705  0.484E-01  0.289E-01  0.161E-01  0.962E-02  0.161E-01  0.962E-02  0.161E-01  0.962E-02
  20.715  0.545E-01  0.318E-01  0.182E-01  0.106E-01  0.182E-01  0.106E-01  0.182E-01  0.106E-01
  20.725  0.615E-01  0.349E-01  0.205E-01  0.116E-01  0.205E-01  0.116E-01  0.205E-01  0.116E-01
  20.735  0.694E-01  0.381E-01  0.231E-01  0.127E-01  0.231E-01  0.127E-01  0.231E-01  0.127E-01
  20.745  0.782E-01  0.415E-01  0.261E-01  0.138E-01  0.261E-01  0.138E-01  0.261E-01  0.138E-01
  20.755  0.879E-01  0.452E-01  0.293E-01  0.151E-01  0.293E-01  0.151E-01  0.293E-01  0.151E-01
  20.765  0.981E-01  0.493E-01  0.327E-01  0.164E-01  0.327E-01  0.164E-01  0.327E-01  0.164E-01
  20.775  0.109E+00  0.539E-01  0.362E-01  0.180E-01  0.362E-01  0.180E-01  0.362E-01  0.180E-01
  20.785  0.119E+00  0.591E-01  0.398E-01  0.197E-01  0.398E-01  0.197E-01  0.398E-01  0.197E-01
  20.795  0.130E+00  0.650E-01  0.433E-01  0.217E-01  0.433E-01  0.217E-01  0.433E-01  0.217E-01
  20.805  0.140E+00  0.715E-01  0.467E-01  0.238E-01  0.467E-01  0.238E-01  0.467E-01  0.238E-01
  20.815  0.150E+00  0.788E-01  0.499E-01  0.263E-01  0.499E-01  0.263E-01  0.499E-01  0.263E-01
  20.825  0.158E+00  0.867E-01  0.527E-01  0.289E-01  0.527E-01  0.289E-01  0.527E-01  0.289E-01
  20.835  0.165E+00  0.951E-01  0.551E-01  0.317E-01  0.551E-01  0.317E-01  0.551E-01  0.317E-01
  20.845  0.171E+00  0.104E+00  0.570E-01  0.347E-01  0.570E-01  0.347E-01  0.570E-01  0.347E-01
  20.855  0.175E+00  0.113E+00  0.584E-01  0.378E-01  0.584E-01  0.377E-01  0.584E-01  0.378E-01
  20.865  0.178E+00  0.123E+00  0.592E-01  0.408E-01  0.592E-01  0.408E-01  0.592E-01  0.408E-01
  20.875  0.178E+00  0.132E+00  0.594E-01  0.439E-01  0.594E-01  0.439E-01  0.594E-01  0.439E-01
  20.885  0.177E+00  0.141E+00  0.590E-01  0.468E-01  0.590E-01  0.468E-01  0.590E-01  0.468E-01
  20.895  0.174E+00  0.149E+00  0.580E-01  0.496E-01  0.580E-01  0.496E-01  0.580E-01  0.496E-01
  20.905  0.169E+00  0.156E+00  0.565E-01  0.520E-01  0.565E-01  0.520E-01  0.565E-01  0.520E-01
  20.915  0.163E+00  0.162E+00  0.544E-01  0.541E-01  0.544E-01  0.541E-01  0.544E-01  0.541E-01
  20.925  0.155E+00  0.167E+00  0.518E-01  0.558E-01  0.518E-01  0.558E-01  0.518E-01  0.558E-01
  20.935  0.146E+00  0.171E+00  0.488E-01  0.570E-01  0.488E-01  0.570E-01  0.488E-01  0.570E-01
  20.945  0.136E+00  0.173E+00  0.455E-01  0.576E-01  0.455E-01  0.576E-01  0.455E-01  0.576E-01
  20.955  0.126E+00  0.173E+00  0.419E-01  0.577E-01  0.419E-01  0.577E-01  0.419E-01  0.577E-01
  20.965  0.114E+00  0.172E+00  0.380E-01  0.572E-01  0.380E-01  0.572E-01  0.380E-01  0.572E-01
  20.975  0.102E+00  0.168E+00  0.341E-01  0.561E-01  0.341E-01  0.561E-01  0.341E-01  0.561E-01
  20.985  0.903E-01  0.163E+00  0.301E-01  0.544E-01  0.301E-01  0.544E-01  0.301E-01  0.544E-01
  20.995  0.784E-01  0.157E+00  0.261E-01  0.522E-01  0.261E-01  0.522E-01  0.261E-01  0.522E-01
  21.005  0.669E-01  0.148E+00  0.223E-01  0.495E-01  0.223E-01  0.495E-01  0.223E-01  0.495E-01
  21.015  0.559E-01  0.139E+00  0.186E-01  0.463E-01  0.186E-01  0.464E-01  0.186E-01  0.463E-01
  21.025  0.455E-01  0.129E+00  0.152E-01  0.429E-01  0.152E-01  0.429E-01  0.152E-01  0.429E-01
  21.035  0.360E-01  0.117E+00  0.120E-01  0.391E-01  0.120E-01  0.391E-01  0.120E-01  0.391E-01
  21.045  0.275E-01  0.105E+00  0.915E-02  0.351E-01  0.915E-02  0.352E-01  0.915E-02  0.351E-01
  21.055  0.199E-01  0.933E-01  0.663E-02  0.311E-01  0.663E-02  0.311E-01  0.663E-02  0.311E-01
  21.065  0.134E-01  0.812E-01  0.446E-02  0.271E-01  0.445E-02  0.271E-01  0.446E-02  0.271E-01
  21.075  0.788E-02  0.693E-01  0.263E-02  0.231E-01  0.263E-02  0.231E-01  0.263E-02  0.231E-01
  21.085  0.341E-02  0.579E-01  0.114E-02  0.193E-01  0.114E-02  0.193E-01  0.114E-02  0.193E-01
  21.095 -0.108E-03  0.471E-01 -0.356E-04  0.157E-01 -0.368E-04  0.157E-01 -0.356E-04  0.157E-01
  21.105 -0.276E-02  0.372E-01 -0.920E-03  0.124E-01 -0.921E-03  0.124E-01 -0.920E-03  0.124E-01
  21.115 -0.464E-02  0.283E-01 -0.155E-02  0.943E-02 -0.155E-02  0.943E-02 -0.155E-02  0.943E-02
  21.125 -0.586E-02  0.204E-01 -0.195E-02  0.681E-02 -0.196E-02  0.681E-02 -0.195E-02  0.681E-02
  21.135 -0.653E-02  0.136E-01 -0.218E-02  0.455E-02 -0.218E-02  0.455E-02 -0.218E-02  0.455E-02
  21.145 -0.676E-02  0.797E-02 -0.225E-02  0.266E-02 -0.225E-02  0.266E-02 -0.225E-02  0.266E-02
  21.155 -0.665E-02  0.336E-02 -0.222E-02  0.112E-02 -0.222E-02  0.112E-02 -0.222E-02  0.112E-02
  21.165 -0.630E-02 -0.263E-03 -0.210E-02 -0.872E-04 -0.210E-02 -0.884E-04 -0.210E-02 -0.872E-04
  21.175 -0.579E-02 -0.297E-02 -0.193E-02 -0.991E-03 -0.193E-02 -0.992E-03 -0.193E-02 -0.991E-03
  21.185 -0.518E-02 -0.488E-02 -0.173E-02 -0.163E-02 -0.173E-02 -0.163E-02 -0.173E-02 -0.163E-02
  21.195 -0.454E-02 -0.611E-02 -0.151E-02 -0.204E-02 -0.151E-02 -0.204E-02 -0.151E-02 -0.204E-02
  21.205 -0.391E-02 -0.676E-02 -0.130E-02 -0.225E-02 -0.130E-02 -0.226E-02 -0.130E-02 -0.225E-02
  21.215 -0.332E-02 -0.697E-02 -0.111E-02 -0.232E-02 -0.111E-02 -0.232E-02 -0.111E-02 -0.232E-02
  21.225 -0.278E-02 -0.683E-02 -0.928E-03 -0.228E-02 -0.928E-03 -0.228E-02 -0.928E-03 -0.228E-02
  21.235 -0.233E-02 -0.645E-02 -0.776E-03 -0.215E-02 -0.776E-03 -0.215E-02 -0.776E-03 -0.215E-02
  21.245 -0.195E-02 -0.591E-02 -0.650E-03 -0.197E-02 -0.650E-03 -0.197E-02 -0.650E-03 -0.197E-02
  21.255 -0.166E-02 -0.528E-02 -0.553E-03 -0.176E-02 -0.553E-03 -0.176E-02 -0.553E-03 -0.176E-02
  21.265 -0.145E-02 -0.461E-02 -0.483E-03 -0.154E-02 -0.483E-03 -0.154E-02 -0.483E-03 -0.154E-02
  21.275 -0.132E-02 -0.396E-02 -0.440E-03 -0.132E-02 -0.440E-03 -0.132E-02 -0.440E-03 -0.132E-02
  21.285 -0.126E-02 -0.335E-02 -0.422E-03 -0.112E-02 -0.422E-03 -0.112E-02 -0.422E-03 -0.112E-02
  21.295 -0.128E-02 -0.281E-02 -0.425E-03 -0.936E-03 -0.425E-03 -0.936E-03 -0.425E-03 -0.936E-03
  21.305 -0.135E-02 -0.234E-02 -0.449E-03 -0.780E-03 -0.449E-03 -0.780E-03 -0.449E-03 -0.780E-03
  21.315 -0.146E-02 -0.196E-02 -0.488E-03 -0.653E-03 -0.488E-03 -0.653E-03 -0.488E-03 -0.653E-03
  21.325 -0.162E-02 -0.166E-02 -0.540E-03 -0.554E-03 -0.540E-03 -0.554E-03 -0.540E-03 -0.554E-03
  21.335 -0.180E-02 -0.145E-02 -0.599E-03 -0.484E-03 -0.599E-03 -0.484E-03 -0.599E-03 -0.484E-03
  21.345 -0.198E-02 -0.132E-02 -0.658E-03 -0.440E-03 -0.659E-03 -0.440E-03 -0.658E-03 -0.440E-03
  21.355 -0.213E-02 -0.126E-02 -0.711E-03 -0.421E-03 -0.711E-03 -0.421E-03 -0.711E-03 -0.421E-03
  21.365 -0.224E-02 -0.128E-02 -0.747E-03 -0.426E-03 -0.747E-03 -0.426E-03 -0.747E-03 -0.426E-03
  21.375 -0.227E-02 -0.135E-02 -0.756E-03 -0.450E-03 -0.756E-03 -0.450E-03 -0.756E-03 -0.450E-03
  21.385 -0.217E-02 -0.147E-02 -0.725E-03 -0.491E-03 -0.725E-03 -0.491E-03 -0.725E-03 -0.491E-03
  21.395 -0.192E-02 -0.163E-02 -0.640E-03 -0.544E-03 -0.641E-03 -0.545E-03 -0.640E-03 -0.544E-03
  21.405 -0.146E-02 -0.182E-02 -0.488E-03 -0.606E-03 -0.488E-03 -0.606E-03 -0.488E-03 -0.606E-03
  21.415 -0.762E-03 -0.201E-02 -0.254E-03 -0.668E-03 -0.254E-03 -0.669E-03 -0.254E-03 -0.668E-03
  21.425  0.229E-03 -0.217E-02  0.762E-04 -0.725E-03  0.764E-04 -0.725E-03  0.762E-04 -0.725E-03
  21.435  0.154E-02 -0.230E-02  0.514E-03 -0.766E-03  0.514E-03 -0.766E-03  0.514E-03 -0.766E-03
  21.445  0.320E-02 -0.234E-02  0.107E-02 -0.780E-03  0.107E-02 -0.780E-03  0.107E-02 -0.780E-03
  21.455  0.523E-02 -0.226E-02  0.174E-02 -0.755E-03  0.174E-02 -0.755E-03  0.174E-02 -0.755E-03
  21.465  0.762E-02 -0.203E-02  0.254E-02 -0.677E-03  0.254E-02 -0.677E-03  0.254E-02 -0.677E-03
  21.475  0.103E-01 -0.159E-02  0.345E-02 -0.531E-03  0.345E-02 -0.531E-03  0.345E-02 -0.531E-03
  21.485  0.134E-01 -0.906E-03  0.446E-02 -0.302E-03  0.446E-02 -0.302E-03  0.446E-02 -0.302E-03
  21.495  0.167E-01  0.720E-04  0.555E-02  0.240E-04  0.556E-02  0.241E-04  0.555E-02  0.240E-04
  21.505  0.201E-01  0.138E-02  0.670E-02  0.459E-03  0.671E-02  0.460E-03  0.670E-02  0.459E-03
  21.515  0.236E-01  0.304E-02  0.788E-02  0.101E-02  0.789E-02  0.101E-02  0.788E-02  0.101E-02
  21.525  0.271E-01  0.508E-02  0.905E-02  0.169E-02  0.905E-02  0.169E-02  0.905E-02  0.169E-02
  21.535  0.305E-01  0.749E-02  0.102E-01  0.250E-02  0.102E-01  0.250E-02  0.102E-01  0.250E-02
  21.545  0.336E-01  0.103E-01  0.112E-01  0.342E-02  0.112E-01  0.342E-02  0.112E-01  0.342E-02
  21.555  0.363E-01  0.134E-01  0.121E-01  0.445E-02  0.121E-01  0.445E-02  0.121E-01  0.445E-02
  21.565  0.385E-01  0.167E-01  0.128E-01  0.557E-02  0.128E-01  0.557E-02  0.128E-01  0.557E-02
  21.575  0.401E-01  0.203E-01  0.134E-01  0.675E-02  0.134E-01  0.676E-02  0.134E-01  0.675E-02
  21.585  0.411E-01  0.239E-01  0.137E-01  0.796E-02  0.137E-01  0.797E-02  0.137E-01  0.796E-02
  21.595  0.414E-01  0.275E-01  0.138E-01  0.917E-02  0.138E-01  0.917E-02  0.138E-01  0.917E-02
  21.605  0.411E-01  0.310E-01  0.137E-01  0.103E-01  0.137E-01  0.103E-01  0.137E-01  0.103E-01
  21.615  0.400E-01  0.342E-01  0.133E-01  0.114E-01  0.133E-01  0.114E-01  0.133E-01  0.114E-01
  21.625  0.383E-01  0.370E-01  0.128E-01  0.123E-01  0.128E-01  0.123E-01  0.128E-01  0.123E-01
  21.635  0.360E-01  0.393E-01  0.120E-01  0.131E-01  0.120E-01  0.131E-01  0.120E-01  0.131E-01
  21.645  0.333E-01  0.411E-01  0.111E-01  0.137E-01  0.111E-01  0.137E-01  0.111E-01  0.137E-01
  21.655  0.303E-01  0.421E-01  0.101E-01  0.140E-01  0.101E-01  0.140E-01  0.101E-01  0.140E-01
  21.665  0.272E-01  0.425E-01  0.906E-02  0.142E-01  0.906E-02  0.142E-01  0.906E-02  0.142E-01
  21.675  0.241E-01  0.421E-01  0.802E-02  0.140E-01  0.802E-02  0.140E-01  0.802E-02  0.140E-01
  21.685  0.211E-01  0.411E-01  0.705E-02  0.137E-01  0.705E-02  0.137E-01  0.705E-02  0.137E-01
  21.695  0.186E-01  0.394E-01  0.621E-02  0.131E-01  0.621E-02  0.131E-01  0.621E-02  0.131E-01
  21.705  0.167E-01  0.372E-01  0.556E-02  0.124E-01  0.556E-02  0.124E-01  0.556E-02  0.124E-01
  21.715  0.155E-01  0.346E-01  0.517E-02  0.115E-01  0.517E-02  0.115E-01  0.517E-02  0.115E-01
  21.725  0.152E-01  0.318E-01  0.507E-02  0.106E-01  0.507E-02  0.106E-01  0.507E-02  0.106E-01
  21.735  0.160E-01  0.288E-01  0.533E-02  0.961E-02  0.533E-02  0.961E-02  0.533E-02  0.961E-02
  21.745  0.179E-01  0.260E-01  0.596E-02  0.866E-02  0.596E-02  0.866E-02  0.596E-02  0.866E-02
  21.755  0.210E-01  0.234E-01  0.699E-02  0.781E-02  0.699E-02  0.781E-02  0.699E-02  0.781E-02
  21.765  0.253E-01  0.213E-01  0.843E-02  0.710E-02  0.843E-02  0.711E-02  0.843E-02  0.710E-02
  21.775  0.308E-01  0.198E-01  0.103E-01  0.662E-02  0.103E-01  0.662E-02  0.103E-01  0.662E-02
  21.785  0.374E-01  0.192E-01  0.125E-01  0.639E-02  0.125E-01  0.639E-02  0.125E-01  0.639E-02
  21.795  0.450E-01  0.194E-01  0.150E-01  0.646E-02  0.150E-01  0.646E-02  0.150E-01  0.646E-02
  21.805  0.533E-01  0.206E-01  0.178E-01  0.686E-02  0.178E-01  0.686E-02  0.178E-01  0.686E-02
  21.815  0.622E-01  0.228E-01  0.207E-01  0.761E-02  0.207E-01  0.761E-02  0.207E-01  0.761E-02
  21.825  0.715E-01  0.261E-01  0.238E-01  0.872E-02  0.238E-01  0.872E-02  0.238E-01  0.872E-02
  21.835  0.807E-01  0.305E-01  0.269E-01  0.102E-01  0.269E-01  0.102E-01  0.269E-01  0.102E-01
  21.845  0.897E-01  0.358E-01  0.299E-01  0.119E-01  0.299E-01  0.119E-01  0.299E-01  0.119E-01
  21.855  0.981E-01  0.420E-01  0.327E-01  0.140E-01  0.327E-01  0.140E-01  0.327E-01  0.140E-01
  21.865  0.106E+00  0.489E-01  0.352E-01  0.163E-01  0.352E-01  0.163E-01  0.352E-01  0.163E-01
  21.875  0.112E+00  0.563E-01  0.373E-01  0.188E-01  0.373E-01  0.188E-01  0.373E-01  0.188E-01
  21.885  0.117E+00  0.641E-01  0.390E-01  0.214E-01  0.390E-01  0.214E-01  0.390E-01  0.214E-01
  21.895  0.121E+00  0.721E-01  0.402E-01  0.240E-01  0.402E-01  0.240E-01  0.402E-01  0.240E-01
  21.905  0.122E+00  0.799E-01  0.408E-01  0.266E-01  0.408E-01  0.266E-01  0.408E-01  0.266E-01
  21.915  0.123E+00  0.875E-01  0.409E-01  0.292E-01  0.409E-01  0.292E-01  0.409E-01  0.292E-01
  21.925  0.121E+00  0.945E-01  0.404E-01  0.315E-01  0.404E-01  0.315E-01  0.404E-01  0.315E-01
  21.935  0.118E+00  0.101E+00  0.393E-01  0.336E-01  0.393E-01  0.336E-01  0.393E-01  0.336E-01
  21.945  0.113E+00  0.106E+00  0.377E-01  0.354E-01  0.377E-01  0.354E-01  0.377E-01  0.354E-01
  21.955  0.107E+00  0.110E+00  0.357E-01  0.368E-01  0.357E-01  0.368E-01  0.357E-01  0.368E-01
  21.965  0.997E-01  0.114E+00  0.332E-01  0.378E-01  0.333E-01  0.378E-01  0.332E-01  0.378E-01
  21.975  0.915E-01  0.115E+00  0.305E-01  0.384E-01  0.305E-01  0.384E-01  0.305E-01  0.384E-01
  21.985  0.827E-01  0.116E+00  0.276E-01  0.385E-01  0.276E-01  0.385E-01  0.276E-01  0.385E-01
  21.995  0.734E-01  0.114E+00  0.245E-01  0.381E-01  0.245E-01  0.382E-01  0.245E-01  0.381E-01
  22.005  0.640E-01  0.112E+00  0.213E-01  0.373E-01  0.213E-01  0.373E-01  0.213E-01  0.373E-01
  22.015  0.546E-01  0.108E+00  0.182E-01  0.361E-01  0.182E-01  0.361E-01  0.182E-01  0.361E-01
  22.025  0.455E-01  0.103E+00  0.152E-01  0.344E-01  0.152E-01  0.344E-01  0.152E-01  0.344E-01
  22.035  0.370E-01  0.971E-01  0.123E-01  0.324E-01  0.123E-01  0.324E-01  0.123E-01  0.324E-01
  22.045  0.291E-01  0.901E-01  0.968E-02  0.300E-01  0.970E-02  0.300E-01  0.968E-02  0.300E-01
  22.055  0.219E-01  0.823E-01  0.729E-02  0.274E-01  0.731E-02  0.275E-01  0.729E-02  0.274E-01
  22.065  0.156E-01  0.741E-01  0.518E-02  0.247E-01  0.519E-02  0.247E-01  0.518E-02  0.247E-01
  22.075  0.101E-01  0.655E-01  0.336E-02  0.218E-01  0.337E-02  0.219E-01  0.336E-02  0.218E-01
  22.085  0.550E-02  0.569E-01  0.183E-02  0.189E-01  0.184E-02  0.190E-01  0.183E-02  0.189E-01
  22.095  0.177E-02  0.483E-01  0.588E-03  0.161E-01  0.594E-03  0.161E-01  0.588E-03  0.161E-01
  22.105 -0.115E-02  0.401E-01 -0.385E-03  0.134E-01 -0.379E-03  0.134E-01 -0.385E-03  0.134E-01
  22.115 -0.331E-02  0.323E-01 -0.111E-02  0.108E-01 -0.110E-02  0.108E-01 -0.111E-02  0.108E-01
  22.125 -0.479E-02  0.251E-01 -0.160E-02  0.837E-02 -0.159E-02  0.839E-02 -0.160E-02  0.837E-02
  22.135 -0.565E-02  0.186E-01 -0.189E-02  0.621E-02 -0.188E-02  0.622E-02 -0.189E-02  0.621E-02
  22.145 -0.598E-02  0.129E-01 -0.199E-02  0.431E-02 -0.199E-02  0.432E-02 -0.199E-02  0.431E-02
  22.155 -0.584E-02  0.803E-02 -0.195E-02  0.267E-02 -0.195E-02  0.268E-02 -0.195E-02  0.267E-02
  22.165 -0.531E-02  0.394E-02 -0.177E-02  0.131E-02 -0.177E-02  0.132E-02 -0.177E-02  0.131E-02
  22.175 -0.443E-02  0.663E-03 -0.148E-02  0.219E-03 -0.148E-02  0.225E-03 -0.148E-02  0.219E-03
  22.185 -0.328E-02 -0.185E-02 -0.109E-02 -0.617E-03 -0.109E-02 -0.612E-03 -0.109E-02 -0.617E-03
  22.195 -0.190E-02 -0.364E-02 -0.631E-03 -0.121E-02 -0.633E-03 -0.121E-02 -0.631E-03 -0.121E-02
  22.205 -0.336E-03 -0.477E-02 -0.111E-03 -0.159E-02 -0.114E-03 -0.159E-02 -0.111E-03 -0.159E-02
  22.215  0.135E-02 -0.531E-02  0.451E-03 -0.177E-02  0.449E-03 -0.177E-02  0.451E-03 -0.177E-02
  22.225  0.312E-02 -0.534E-02  0.104E-02 -0.178E-02  0.104E-02 -0.178E-02  0.104E-02 -0.178E-02
  22.235  0.492E-02 -0.491E-02  0.164E-02 -0.164E-02  0.164E-02 -0.164E-02  0.164E-02 -0.164E-02
  22.245  0.670E-02 -0.411E-02  0.223E-02 -0.137E-02  0.223E-02 -0.137E-02  0.223E-02 -0.137E-02
  22.255  0.842E-02 -0.299E-02  0.281E-02 -0.995E-03  0.280E-02 -0.996E-03  0.281E-02 -0.995E-03
  22.265  0.100E-01 -0.161E-02  0.335E-02 -0.536E-03  0.334E-02 -0.539E-03  0.335E-02 -0.536E-03
  22.275  0.115E-01 -0.465E-04  0.384E-02 -0.145E-04  0.383E-02 -0.175E-04  0.384E-02 -0.145E-04
  22.285  0.128E-01  0.165E-02  0.428E-02  0.552E-03  0.427E-02  0.548E-03  0.428E-02  0.552E-03
  22.295  0.140E-01  0.343E-02  0.466E-02  0.114E-02  0.465E-02  0.114E-02  0.466E-02  0.114E-02
  22.305  0.150E-01  0.523E-02  0.500E-02  0.175E-02  0.499E-02  0.174E-02  0.500E-02  0.175E-02
  22.315  0.159E-01  0.702E-02  0.530E-02  0.234E-02  0.529E-02  0.234E-02  0.530E-02  0.234E-02
  22.325  0.167E-01  0.875E-02  0.558E-02  0.292E-02  0.558E-02  0.291E-02  0.558E-02  0.292E-02
  22.335  0.177E-01  0.104E-01  0.589E-02  0.346E-02  0.588E-02  0.346E-02  0.589E-02  0.346E-02
  22.345  0.187E-01  0.119E-01  0.625E-02  0.398E-02  0.624E-02  0.397E-02  0.625E-02  0.398E-02
  22.355  0.201E-01  0.134E-01  0.669E-02  0.446E-02  0.669E-02  0.445E-02  0.669E-02  0.446E-02
  22.365  0.218E-01  0.147E-01  0.728E-02  0.491E-02  0.727E-02  0.491E-02  0.728E-02  0.491E-02
  22.375  0.241E-01  0.161E-01  0.804E-02  0.536E-02  0.803E-02  0.535E-02  0.804E-02  0.536E-02
  22.385  0.270E-01  0.174E-01  0.900E-02  0.582E-02  0.900E-02  0.581E-02  0.900E-02  0.582E-02
  22.395  0.306E-01  0.189E-01  0.102E-01  0.632E-02  0.102E-01  0.631E-02  0.102E-01  0.632E-02
  22.405  0.349E-01  0.207E-01  0.116E-01  0.689E-02  0.116E-01  0.688E-02  0.116E-01  0.689E-02
  22.415  0.399E-01  0.227E-01  0.133E-01  0.757E-02  0.133E-01  0.757E-02  0.133E-01  0.757E-02
  22.425  0.456E-01  0.252E-01  0.152E-01  0.840E-02  0.152E-01  0.840E-02  0.152E-01  0.840E-02
  22.435  0.517E-01  0.282E-01  0.172E-01  0.941E-02  0.172E-01  0.940E-02  0.172E-01  0.941E-02
  22.445  0.582E-01  0.318E-01  0.194E-01  0.106E-01  0.194E-01  0.106E-01  0.194E-01  0.106E-01
  22.455  0.648E-01  0.361E-01  0.216E-01  0.120E-01  0.216E-01  0.120E-01  0.216E-01  0.120E-01
  22.465  0.712E-01  0.410E-01  0.237E-01  0.137E-01  0.237E-01  0.137E-01  0.237E-01  0.137E-01
  22.475  0.772E-01  0.465E-01  0.257E-01  0.155E-01  0.257E-01  0.155E-01  0.257E-01  0.155E-01
  22.485  0.824E-01  0.524E-01  0.275E-01  0.175E-01  0.275E-01  0.175E-01  0.275E-01  0.175E-01
  22.495  0.866E-01  0.586E-01  0.289E-01  0.195E-01  0.289E-01  0.195E-01  0.289E-01  0.195E-01
  22.505  0.896E-01  0.650E-01  0.299E-01  0.217E-01  0.299E-01  0.217E-01  0.299E-01  0.217E-01
  22.515  0.912E-01  0.712E-01  0.304E-01  0.237E-01  0.304E-01  0.237E-01  0.304E-01  0.237E-01
  22.525  0.913E-01  0.769E-01  0.304E-01  0.256E-01  0.304E-01  0.256E-01  0.304E-01  0.256E-01
  22.535  0.898E-01  0.820E-01  0.299E-01  0.273E-01  0.299E-01  0.274E-01  0.299E-01  0.273E-01
  22.545  0.868E-01  0.862E-01  0.289E-01  0.287E-01  0.290E-01  0.287E-01  0.289E-01  0.287E-01
  22.555  0.825E-01  0.892E-01  0.275E-01  0.297E-01  0.275E-01  0.297E-01  0.275E-01  0.297E-01
  22.565  0.769E-01  0.909E-01  0.256E-01  0.303E-01  0.256E-01  0.303E-01  0.256E-01  0.303E-01
  22.575  0.703E-01  0.911E-01  0.234E-01  0.304E-01  0.234E-01  0.304E-01  0.234E-01  0.304E-01
  22.585  0.629E-01  0.898E-01  0.210E-01  0.299E-01  0.210E-01  0.299E-01  0.210E-01  0.299E-01
  22.595  0.551E-01  0.870E-01  0.184E-01  0.290E-01  0.184E-01  0.290E-01  0.184E-01  0.290E-01
  22.605  0.471E-01  0.828E-01  0.157E-01  0.276E-01  0.157E-01  0.276E-01  0.157E-01  0.276E-01
  22.615  0.392E-01  0.774E-01  0.131E-01  0.258E-01  0.131E-01  0.258E-01  0.131E-01  0.258E-01
  22.625  0.317E-01  0.710E-01  0.106E-01  0.237E-01  0.106E-01  0.237E-01  0.106E-01  0.237E-01
  22.635  0.246E-01  0.638E-01  0.820E-02  0.213E-01  0.820E-02  0.213E-01  0.820E-02  0.213E-01
  22.645  0.182E-01  0.561E-01  0.608E-02  0.187E-01  0.608E-02  0.187E-01  0.608E-02  0.187E-01
  22.655  0.126E-01  0.482E-01  0.421E-02  0.161E-01  0.421E-02  0.161E-01  0.421E-02  0.161E-01
  22.665  0.785E-02  0.403E-01  0.262E-02  0.134E-01  0.262E-02  0.134E-01  0.262E-02  0.134E-01
  22.675  0.393E-02  0.327E-01  0.131E-02  0.109E-01  0.131E-02  0.109E-01  0.131E-02  0.109E-01
  22.685  0.827E-03  0.256E-01  0.275E-03  0.853E-02  0.276E-03  0.853E-02  0.275E-03  0.853E-02
  22.695 -0.152E-02  0.191E-01 -0.506E-03  0.638E-02 -0.506E-03  0.638E-02 -0.506E-03  0.638E-02
  22.705 -0.318E-02  0.134E-01 -0.106E-02  0.448E-02 -0.106E-02  0.448E-02 -0.106E-02  0.448E-02
  22.715 -0.426E-02  0.855E-02 -0.142E-02  0.285E-02 -0.142E-02  0.285E-02 -0.142E-02  0.285E-02
  22.725 -0.485E-02  0.451E-02 -0.162E-02  0.150E-02 -0.162E-02  0.150E-02 -0.162E-02  0.150E-02
  22.735 -0.506E-02  0.129E-02 -0.169E-02  0.430E-03 -0.169E-02  0.430E-03 -0.169E-02  0.430E-03
  22.745 -0.499E-02 -0.116E-02 -0.166E-02 -0.388E-03 -0.166E-02 -0.388E-03 -0.166E-02 -0.388E-03
  22.755 -0.470E-02 -0.293E-02 -0.157E-02 -0.976E-03 -0.157E-02 -0.976E-03 -0.157E-02 -0.976E-03
  22.765 -0.428E-02 -0.409E-02 -0.143E-02 -0.136E-02 -0.143E-02 -0.136E-02 -0.143E-02 -0.136E-02
  22.775 -0.379E-02 -0.476E-02 -0.126E-02 -0.159E-02 -0.126E-02 -0.159E-02 -0.126E-02 -0.159E-02
  22.785 -0.328E-02 -0.503E-02 -0.109E-02 -0.168E-02 -0.109E-02 -0.168E-02 -0.109E-02 -0.168E-02
  22.795 -0.277E-02 -0.499E-02 -0.923E-03 -0.166E-02 -0.924E-03 -0.166E-02 -0.923E-03 -0.166E-02
  22.805 -0.229E-02 -0.474E-02 -0.765E-03 -0.158E-02 -0.765E-03 -0.158E-02 -0.765E-03 -0.158E-02
  22.815 -0.187E-02 -0.434E-02 -0.622E-03 -0.145E-02 -0.622E-03 -0.145E-02 -0.622E-03 -0.145E-02
  22.825 -0.149E-02 -0.386E-02 -0.497E-03 -0.129E-02 -0.497E-03 -0.129E-02 -0.497E-03 -0.129E-02
  22.835 -0.117E-02 -0.335E-02 -0.390E-03 -0.112E-02 -0.390E-03 -0.112E-02 -0.390E-03 -0.112E-02
  22.845 -0.905E-03 -0.284E-02 -0.302E-03 -0.948E-03 -0.302E-03 -0.948E-03 -0.302E-03 -0.948E-03
  22.855 -0.689E-03 -0.236E-02 -0.230E-03 -0.788E-03 -0.230E-03 -0.788E-03 -0.230E-03 -0.788E-03
  22.865 -0.517E-03 -0.193E-02 -0.172E-03 -0.643E-03 -0.172E-03 -0.643E-03 -0.172E-03 -0.643E-03
  22.875 -0.383E-03 -0.155E-02 -0.128E-03 -0.515E-03 -0.128E-03 -0.515E-03 -0.128E-03 -0.515E-03
  22.885 -0.279E-03 -0.122E-02 -0.930E-04 -0.406E-03 -0.930E-04 -0.406E-03 -0.930E-04 -0.406E-03
  22.895 -0.201E-03 -0.944E-03 -0.669E-04 -0.315E-03 -0.669E-04 -0.315E-03 -0.669E-04 -0.315E-03
  22.905 -0.142E-03 -0.721E-03 -0.475E-04 -0.240E-03 -0.475E-04 -0.240E-03 -0.475E-04 -0.240E-03
  22.915 -0.998E-04 -0.542E-03 -0.333E-04 -0.181E-03 -0.333E-04 -0.181E-03 -0.333E-04 -0.181E-03
  22.925 -0.690E-04 -0.402E-03 -0.230E-04 -0.134E-03 -0.230E-04 -0.134E-03 -0.230E-04 -0.134E-03
  22.935 -0.471E-04 -0.294E-03 -0.157E-04 -0.980E-04 -0.157E-04 -0.980E-04 -0.157E-04 -0.980E-04
  22.945 -0.317E-04 -0.212E-03 -0.106E-04 -0.707E-04 -0.106E-04 -0.707E-04 -0.106E-04 -0.707E-04
  22.955 -0.211E-04 -0.151E-03 -0.703E-05 -0.503E-04 -0.703E-05 -0.503E-04 -0.703E-05 -0.503E-04
  22.965 -0.139E-04 -0.106E-03 -0.462E-05 -0.353E-04 -0.462E-05 -0.353E-04 -0.462E-05 -0.353E-04
  22.975 -0.899E-05 -0.734E-04 -0.300E-05 -0.245E-04 -0.300E-05 -0.245E-04 -0.300E-05 -0.245E-04
  22.985 -0.577E-05 -0.502E-04 -0.192E-05 -0.167E-04 -0.192E-05 -0.167E-04 -0.192E-05 -0.167E-04
  22.995 -0.365E-05 -0.339E-04 -0.122E-05 -0.113E-04 -0.122E-05 -0.113E-04 -0.122E-05 -0.113E-04
  23.005 -0.228E-05 -0.226E-04 -0.761E-06 -0.753E-05 -0.762E-06 -0.753E-05 -0.761E-06 -0.753E-05
  23.015 -0.141E-05 -0.149E-04 -0.471E-06 -0.496E-05 -0.471E-06 -0.496E-05 -0.471E-06 -0.496E-05
  23.025 -0.863E-06 -0.968E-05 -0.288E-06 -0.323E-05 -0.288E-06 -0.323E-05 -0.288E-06 -0.323E-05
  23.035 -0.521E-06 -0.622E-05 -0.174E-06 -0.207E-05 -0.174E-06 -0.207E-05 -0.174E-06 -0.207E-05
  23.045 -0.312E-06 -0.395E-05 -0.104E-06 -0.132E-05 -0.104E-06 -0.132E-05 -0.104E-06 -0.132E-05
  23.055 -0.185E-06 -0.248E-05 -0.617E-07 -0.825E-06 -0.617E-07 -0.825E-06 -0.617E-07 -0.825E-06
  23.065 -0.110E-06 -0.153E-05 -0.368E-07 -0.511E-06 -0.367E-07 -0.511E-06 -0.368E-07 -0.511E-06
  23.075 -0.674E-07 -0.939E-06 -0.225E-07 -0.313E-06 -0.224E-07 -0.313E-06 -0.225E-07 -0.313E-06
  23.085 -0.446E-07 -0.568E-06 -0.149E-07 -0.189E-06 -0.148E-07 -0.189E-06 -0.149E-07 -0.189E-06
  23.095 -0.351E-07 -0.340E-06 -0.118E-07 -0.113E-06 -0.116E-07 -0.113E-06 -0.118E-07 -0.113E-06
  23.105 -0.353E-07 -0.201E-06 -0.119E-07 -0.671E-07 -0.116E-07 -0.671E-07 -0.119E-07 -0.671E-07
  23.115 -0.439E-07 -0.118E-06 -0.148E-07 -0.394E-07 -0.143E-07 -0.394E-07 -0.148E-07 -0.394E-07
  23.125 -0.616E-07 -0.695E-07 -0.208E-07 -0.232E-07 -0.201E-07 -0.232E-07 -0.208E-07 -0.232E-07
  23.135 -0.903E-07 -0.419E-07 -0.305E-07 -0.140E-07 -0.294E-07 -0.139E-07 -0.305E-07 -0.140E-07
  23.145 -0.134E-06 -0.272E-07 -0.451E-07 -0.909E-08 -0.436E-07 -0.901E-08 -0.451E-07 -0.909E-08
  23.155 -0.197E-06 -0.210E-07 -0.665E-07 -0.703E-08 -0.643E-07 -0.691E-08 -0.665E-07 -0.703E-08
  23.165 -0.288E-06 -0.208E-07 -0.971E-07 -0.701E-08 -0.939E-07 -0.682E-08 -0.971E-07 -0.701E-08
  23.175 -0.416E-06 -0.261E-07 -0.140E-06 -0.878E-08 -0.136E-06 -0.849E-08 -0.140E-06 -0.878E-08
  23.185 -0.592E-06 -0.370E-07 -0.199E-06 -0.125E-07 -0.193E-06 -0.120E-07 -0.199E-06 -0.125E-07
  23.195 -0.832E-06 -0.550E-07 -0.280E-06 -0.186E-07 -0.272E-06 -0.179E-07 -0.280E-06 -0.186E-07
  23.205 -0.115E-05 -0.828E-07 -0.388E-06 -0.279E-07 -0.377E-06 -0.270E-07 -0.388E-06 -0.279E-07
  23.215 -0.158E-05 -0.124E-06 -0.531E-06 -0.418E-07 -0.517E-06 -0.404E-07 -0.531E-06 -0.418E-07
  23.225 -0.213E-05 -0.184E-06 -0.716E-06 -0.621E-07 -0.697E-06 -0.600E-07 -0.716E-06 -0.621E-07
  23.235 -0.283E-05 -0.270E-06 -0.951E-06 -0.909E-07 -0.928E-06 -0.880E-07 -0.951E-06 -0.909E-07
  23.245 -0.371E-05 -0.391E-06 -0.125E-05 -0.132E-06 -0.122E-05 -0.128E-06 -0.125E-05 -0.132E-06
  23.255 -0.478E-05 -0.559E-06 -0.161E-05 -0.188E-06 -0.157E-05 -0.182E-06 -0.161E-05 -0.188E-06
  23.265 -0.607E-05 -0.788E-06 -0.204E-05 -0.265E-06 -0.199E-05 -0.258E-06 -0.204E-05 -0.265E-06
  23.275 -0.757E-05 -0.110E-05 -0.254E-05 -0.369E-06 -0.249E-05 -0.359E-06 -0.254E-05 -0.369E-06
  23.285 -0.929E-05 -0.151E-05 -0.311E-05 -0.506E-06 -0.306E-05 -0.493E-06 -0.311E-05 -0.506E-06
  23.295 -0.112E-04 -0.204E-05 -0.374E-05 -0.685E-06 -0.369E-05 -0.668E-06 -0.374E-05 -0.685E-06
  23.305 -0.132E-04 -0.272E-05 -0.441E-05 -0.914E-06 -0.435E-05 -0.892E-06 -0.441E-05 -0.914E-06
  23.315 -0.152E-04 -0.357E-05 -0.508E-05 -0.120E-05 -0.502E-05 -0.117E-05 -0.508E-05 -0.120E-05
  23.325 -0.171E-04 -0.463E-05 -0.570E-05 -0.155E-05 -0.565E-05 -0.152E-05 -0.570E-05 -0.155E-05
  23.335 -0.186E-04 -0.590E-05 -0.622E-05 -0.198E-05 -0.618E-05 -0.194E-05 -0.622E-05 -0.198E-05
  23.345 -0.196E-04 -0.739E-05 -0.654E-05 -0.248E-05 -0.652E-05 -0.243E-05 -0.654E-05 -0.248E-05
  23.355 -0.197E-04 -0.911E-05 -0.657E-05 -0.305E-05 -0.658E-05 -0.300E-05 -0.657E-05 -0.305E-05
  23.365 -0.186E-04 -0.110E-04 -0.620E-05 -0.369E-05 -0.625E-05 -0.363E-05 -0.620E-05 -0.369E-05
  23.375 -0.160E-04 -0.130E-04 -0.529E-05 -0.437E-05 -0.540E-05 -0.431E-05 -0.529E-05 -0.437E-05
  23.385 -0.113E-04 -0.151E-04 -0.373E-05 -0.506E-05 -0.389E-05 -0.500E-05 -0.373E-05 -0.506E-05
  23.395 -0.434E-05 -0.171E-04 -0.137E-05 -0.572E-05 -0.161E-05 -0.567E-05 -0.137E-05 -0.572E-05
  23.405  0.542E-05 -0.188E-04  0.191E-05 -0.629E-05  0.159E-05 -0.624E-05  0.191E-05 -0.629E-05
  23.415  0.182E-04 -0.200E-04  0.621E-05 -0.668E-05  0.580E-05 -0.665E-05  0.621E-05 -0.668E-05
  23.425  0.343E-04 -0.204E-04  0.116E-04 -0.680E-05  0.111E-04 -0.680E-05  0.116E-04 -0.680E-05
  23.435  0.537E-04 -0.196E-04  0.181E-04 -0.653E-05  0.175E-04 -0.657E-05  0.181E-04 -0.653E-05
  23.445  0.764E-04 -0.173E-04  0.257E-04 -0.575E-05  0.250E-04 -0.584E-05  0.257E-04 -0.575E-05
  23.455  0.102E-03 -0.131E-04  0.343E-04 -0.432E-05  0.335E-04 -0.447E-05  0.343E-04 -0.432E-05
  23.465  0.131E-03 -0.653E-05  0.438E-04 -0.210E-05  0.429E-04 -0.233E-05  0.438E-04 -0.210E-05
  23.475  0.161E-03  0.277E-05  0.539E-04  0.103E-05  0.530E-04  0.716E-06  0.539E-04  0.103E-05
  23.485  0.192E-03  0.152E-04  0.644E-04  0.519E-05  0.635E-04  0.478E-05  0.644E-04  0.519E-05
  23.495  0.224E-03  0.309E-04  0.750E-04  0.105E-04  0.741E-04  0.995E-05  0.750E-04  0.105E-04
  23.505  0.255E-03  0.500E-04  0.853E-04  0.169E-04  0.844E-04  0.163E-04  0.853E-04  0.169E-04
  23.515  0.284E-03  0.726E-04  0.948E-04  0.244E-04  0.940E-04  0.237E-04  0.948E-04  0.244E-04
  23.525  0.309E-03  0.984E-04  0.103E-03  0.331E-04  0.103E-03  0.323E-04  0.103E-03  0.331E-04
  23.535  0.331E-03  0.127E-03  0.110E-03  0.426E-04  0.110E-03  0.418E-04  0.110E-03  0.426E-04
  23.545  0.347E-03  0.158E-03  0.116E-03  0.529E-04  0.115E-03  0.520E-04  0.116E-03  0.529E-04
  23.555  0.358E-03  0.190E-03  0.119E-03  0.637E-04  0.119E-03  0.627E-04  0.119E-03  0.637E-04
  23.565  0.362E-03  0.223E-03  0.121E-03  0.746E-04  0.121E-03  0.736E-04  0.121E-03  0.746E-04
  23.575  0.359E-03  0.255E-03  0.120E-03  0.852E-04  0.120E-03  0.843E-04  0.120E-03  0.852E-04
  23.585  0.351E-03  0.285E-03  0.117E-03  0.953E-04  0.117E-03  0.945E-04  0.117E-03  0.953E-04
  23.595  0.336E-03  0.312E-03  0.112E-03  0.104E-03  0.112E-03  0.104E-03  0.112E-03  0.104E-03
  23.605  0.316E-03  0.336E-03  0.105E-03  0.112E-03  0.106E-03  0.112E-03  0.105E-03  0.112E-03
  23.615  0.292E-03  0.354E-03  0.969E-04  0.118E-03  0.976E-04  0.118E-03  0.969E-04  0.118E-03
  23.625  0.264E-03  0.366E-03  0.876E-04  0.122E-03  0.884E-04  0.122E-03  0.876E-04  0.122E-03
  23.635  0.233E-03  0.372E-03  0.774E-04  0.124E-03  0.783E-04  0.124E-03  0.774E-04  0.124E-03
  23.645  0.202E-03  0.372E-03  0.669E-04  0.124E-03  0.678E-04  0.124E-03  0.669E-04  0.124E-03
  23.655  0.170E-03  0.364E-03  0.564E-04  0.121E-03  0.573E-04  0.122E-03  0.564E-04  0.121E-03
  23.665  0.139E-03  0.351E-03  0.461E-04  0.117E-03  0.470E-04  0.117E-03  0.461E-04  0.117E-03
  23.675  0.110E-03  0.331E-03  0.365E-04  0.110E-03  0.373E-04  0.111E-03  0.365E-04  0.110E-03
  23.685  0.836E-04  0.307E-03  0.276E-04  0.102E-03  0.284E-04  0.103E-03  0.276E-04  0.102E-03
  23.695  0.600E-04  0.279E-03  0.198E-04  0.927E-04  0.204E-04  0.936E-04  0.198E-04  0.927E-04
  23.705  0.396E-04  0.248E-03  0.130E-04  0.825E-04  0.136E-04  0.834E-04  0.130E-04  0.825E-04
  23.715  0.226E-04  0.216E-03  0.737E-05  0.717E-04  0.781E-05  0.726E-04  0.737E-05  0.717E-04
  23.725  0.882E-05  0.183E-03  0.282E-05  0.608E-04  0.317E-05  0.617E-04  0.282E-05  0.608E-04
  23.735 -0.180E-05  0.151E-03 -0.687E-06  0.501E-04 -0.421E-06  0.510E-04 -0.687E-06  0.501E-04
  23.745 -0.957E-05  0.121E-03 -0.325E-05  0.400E-04 -0.306E-05  0.409E-04 -0.325E-05  0.400E-04
  23.755 -0.149E-04  0.928E-04 -0.499E-05  0.307E-04 -0.487E-05  0.315E-04 -0.499E-05  0.307E-04
  23.765 -0.181E-04  0.676E-04 -0.604E-05  0.223E-04 -0.597E-05  0.230E-04 -0.604E-05  0.223E-04
  23.775 -0.195E-04  0.458E-04 -0.652E-05  0.151E-04 -0.650E-05  0.157E-04 -0.652E-05  0.151E-04
  23.785 -0.197E-04  0.273E-04 -0.658E-05  0.895E-05 -0.658E-05  0.944E-05 -0.658E-05  0.895E-05
  23.795 -0.190E-04  0.123E-04 -0.631E-05  0.398E-05 -0.634E-05  0.437E-05 -0.631E-05  0.398E-05
  23.805 -0.176E-04  0.609E-06 -0.584E-05  0.104E-06 -0.588E-05  0.402E-06 -0.584E-05  0.104E-06
  23.815 -0.157E-04 -0.810E-05 -0.523E-05 -0.277E-05 -0.528E-05 -0.256E-05 -0.523E-05 -0.277E-05
  23.825 -0.138E-04 -0.142E-04 -0.457E-05 -0.477E-05 -0.462E-05 -0.463E-05 -0.457E-05 -0.477E-05
  23.835 -0.117E-04 -0.180E-04 -0.390E-05 -0.601E-05 -0.395E-05 -0.593E-05 -0.390E-05 -0.601E-05
  23.845 -0.982E-05 -0.199E-04 -0.326E-05 -0.664E-05 -0.331E-05 -0.661E-05 -0.326E-05 -0.664E-05
  23.855 -0.805E-05 -0.204E-04 -0.267E-05 -0.680E-05 -0.272E-05 -0.680E-05 -0.267E-05 -0.680E-05
  23.865 -0.648E-05 -0.198E-04 -0.215E-05 -0.660E-05 -0.219E-05 -0.663E-05 -0.215E-05 -0.660E-05
  23.875 -0.513E-05 -0.185E-04 -0.170E-05 -0.615E-05 -0.173E-05 -0.620E-05 -0.170E-05 -0.615E-05
  23.885 -0.400E-05 -0.167E-04 -0.132E-05 -0.555E-05 -0.135E-05 -0.561E-05 -0.132E-05 -0.555E-05
  23.895 -0.307E-05 -0.147E-04 -0.101E-05 -0.488E-05 -0.104E-05 -0.494E-05 -0.101E-05 -0.488E-05
  23.905 -0.232E-05 -0.126E-04 -0.766E-06 -0.419E-05 -0.785E-06 -0.425E-05 -0.766E-06 -0.419E-05
  23.915 -0.172E-05 -0.106E-04 -0.570E-06 -0.352E-05 -0.585E-06 -0.357E-05 -0.570E-06 -0.352E-05
  23.925 -0.127E-05 -0.874E-05 -0.418E-06 -0.289E-05 -0.430E-06 -0.295E-05 -0.418E-06 -0.289E-05
  23.935 -0.916E-06 -0.707E-05 -0.303E-06 -0.234E-05 -0.311E-06 -0.239E-05 -0.303E-06 -0.234E-05
  23.945 -0.654E-06 -0.562E-05 -0.216E-06 -0.186E-05 -0.222E-06 -0.190E-05 -0.216E-06 -0.186E-05
  23.955 -0.461E-06 -0.439E-05 -0.152E-06 -0.145E-05 -0.157E-06 -0.149E-05 -0.152E-06 -0.145E-05
  23.965 -0.321E-06 -0.338E-05 -0.106E-06 -0.112E-05 -0.109E-06 -0.115E-05 -0.106E-06 -0.112E-05
  23.975 -0.220E-06 -0.256E-05 -0.726E-07 -0.848E-06 -0.750E-07 -0.869E-06 -0.726E-07 -0.848E-06
  23.985 -0.149E-06 -0.192E-05 -0.492E-07 -0.633E-06 -0.508E-07 -0.650E-06 -0.492E-07 -0.633E-06
  23.995 -0.998E-07 -0.141E-05 -0.329E-07 -0.466E-06 -0.341E-07 -0.479E-06 -0.329E-07 -0.466E-06
  24.005 -0.660E-07 -0.103E-05 -0.217E-07 -0.338E-06 -0.225E-07 -0.348E-06 -0.217E-07 -0.338E-06
  24.015 -0.430E-07 -0.735E-06 -0.142E-07 -0.242E-06 -0.147E-07 -0.250E-06 -0.142E-07 -0.242E-06
  24.025 -0.278E-07 -0.519E-06 -0.913E-08 -0.171E-06 -0.949E-08 -0.177E-06 -0.913E-08 -0.171E-06
  24.035 -0.177E-07 -0.362E-06 -0.581E-08 -0.119E-06 -0.605E-08 -0.123E-06 -0.581E-08 -0.119E-06
  24.045 -0.111E-07 -0.250E-06 -0.366E-08 -0.823E-07 -0.381E-08 -0.851E-07 -0.366E-08 -0.823E-07
  24.055 -0.691E-08 -0.170E-06 -0.227E-08 -0.559E-07 -0.237E-08 -0.579E-07 -0.227E-08 -0.559E-07
