# E (eV)  dosup(E)   dosdw(E)  pdosup(E)  pdosdw(E)
   6.485 -0.112E-04 -0.538E-05 -0.112E-04 -0.537E-05
   6.495 -0.163E-04 -0.803E-05 -0.163E-04 -0.801E-05
   6.505 -0.234E-04 -0.118E-04 -0.234E-04 -0.118E-04
   6.515 -0.332E-04 -0.172E-04 -0.331E-04 -0.171E-04
   6.525 -0.465E-04 -0.246E-04 -0.464E-04 -0.246E-04
   6.535 -0.642E-04 -0.349E-04 -0.640E-04 -0.348E-04
   6.545 -0.874E-04 -0.487E-04 -0.872E-04 -0.486E-04
   6.555 -0.117E-03 -0.671E-04 -0.117E-03 -0.670E-04
   6.565 -0.155E-03 -0.912E-04 -0.155E-03 -0.910E-04
   6.575 -0.202E-03 -0.122E-03 -0.202E-03 -0.122E-03
   6.585 -0.260E-03 -0.161E-03 -0.259E-03 -0.161E-03
   6.595 -0.328E-03 -0.210E-03 -0.327E-03 -0.209E-03
   6.605 -0.407E-03 -0.269E-03 -0.406E-03 -0.268E-03
   6.615 -0.496E-03 -0.338E-03 -0.495E-03 -0.338E-03
   6.625 -0.593E-03 -0.419E-03 -0.591E-03 -0.418E-03
   6.635 -0.694E-03 -0.509E-03 -0.692E-03 -0.508E-03
   6.645 -0.794E-03 -0.607E-03 -0.792E-03 -0.606E-03
   6.655 -0.884E-03 -0.708E-03 -0.882E-03 -0.707E-03
   6.665 -0.955E-03 -0.807E-03 -0.953E-03 -0.805E-03
   6.675 -0.993E-03 -0.896E-03 -0.991E-03 -0.893E-03
   6.685 -0.983E-03 -0.963E-03 -0.981E-03 -0.960E-03
   6.695 -0.908E-03 -0.995E-03 -0.906E-03 -0.993E-03
   6.705 -0.749E-03 -0.977E-03 -0.747E-03 -0.975E-03
   6.715 -0.486E-03 -0.891E-03 -0.485E-03 -0.889E-03
   6.725 -0.102E-03 -0.719E-03 -0.101E-03 -0.717E-03
   6.735  0.422E-03 -0.440E-03  0.421E-03 -0.438E-03
   6.745  0.110E-02 -0.358E-04  0.109E-02 -0.358E-04
   6.755  0.193E-02  0.508E-03  0.192E-02  0.507E-03
   6.765  0.292E-02  0.120E-02  0.291E-02  0.120E-02
   6.775  0.405E-02  0.206E-02  0.404E-02  0.205E-02
   6.785  0.531E-02  0.307E-02  0.530E-02  0.306E-02
   6.795  0.667E-02  0.422E-02  0.665E-02  0.421E-02
   6.805  0.808E-02  0.550E-02  0.806E-02  0.548E-02
   6.815  0.949E-02  0.687E-02  0.947E-02  0.685E-02
   6.825  0.109E-01  0.828E-02  0.108E-01  0.826E-02
   6.835  0.121E-01  0.969E-02  0.121E-01  0.966E-02
   6.845  0.132E-01  0.110E-01  0.131E-01  0.110E-01
   6.855  0.140E-01  0.123E-01  0.139E-01  0.122E-01
   6.865  0.145E-01  0.133E-01  0.145E-01  0.133E-01
   6.875  0.147E-01  0.141E-01  0.147E-01  0.140E-01
   6.885  0.146E-01  0.146E-01  0.145E-01  0.145E-01
   6.895  0.141E-01  0.147E-01  0.140E-01  0.147E-01
   6.905  0.132E-01  0.145E-01  0.132E-01  0.145E-01
   6.915  0.121E-01  0.140E-01  0.121E-01  0.139E-01
   6.925  0.109E-01  0.131E-01  0.108E-01  0.130E-01
   6.935  0.953E-02  0.120E-01  0.949E-02  0.119E-01
   6.945  0.825E-02  0.107E-01  0.822E-02  0.106E-01
   6.955  0.720E-02  0.934E-02  0.717E-02  0.930E-02
   6.965  0.653E-02  0.808E-02  0.651E-02  0.805E-02
   6.975  0.644E-02  0.708E-02  0.642E-02  0.705E-02
   6.985  0.709E-02  0.649E-02  0.707E-02  0.647E-02
   6.995  0.863E-02  0.650E-02  0.861E-02  0.647E-02
   7.005  0.112E-01  0.726E-02  0.112E-01  0.725E-02
   7.015  0.148E-01  0.894E-02  0.148E-01  0.893E-02
   7.025  0.196E-01  0.117E-01  0.196E-01  0.116E-01
   7.035  0.255E-01  0.155E-01  0.255E-01  0.155E-01
   7.045  0.324E-01  0.204E-01  0.324E-01  0.204E-01
   7.055  0.402E-01  0.265E-01  0.402E-01  0.265E-01
   7.065  0.486E-01  0.335E-01  0.486E-01  0.335E-01
   7.075  0.573E-01  0.414E-01  0.573E-01  0.414E-01
   7.085  0.661E-01  0.499E-01  0.661E-01  0.498E-01
   7.095  0.745E-01  0.586E-01  0.745E-01  0.586E-01
   7.105  0.822E-01  0.674E-01  0.822E-01  0.673E-01
   7.115  0.888E-01  0.757E-01  0.888E-01  0.757E-01
   7.125  0.940E-01  0.833E-01  0.940E-01  0.832E-01
   7.135  0.976E-01  0.897E-01  0.975E-01  0.896E-01
   7.145  0.993E-01  0.947E-01  0.993E-01  0.946E-01
   7.155  0.991E-01  0.980E-01  0.991E-01  0.979E-01
   7.165  0.970E-01  0.994E-01  0.970E-01  0.994E-01
   7.175  0.932E-01  0.989E-01  0.932E-01  0.989E-01
   7.185  0.880E-01  0.966E-01  0.879E-01  0.965E-01
   7.195  0.816E-01  0.925E-01  0.816E-01  0.925E-01
   7.205  0.747E-01  0.871E-01  0.746E-01  0.870E-01
   7.215  0.676E-01  0.806E-01  0.676E-01  0.806E-01
   7.225  0.611E-01  0.736E-01  0.611E-01  0.736E-01
   7.235  0.557E-01  0.666E-01  0.557E-01  0.666E-01
   7.245  0.519E-01  0.602E-01  0.519E-01  0.602E-01
   7.255  0.503E-01  0.550E-01  0.503E-01  0.550E-01
   7.265  0.511E-01  0.515E-01  0.511E-01  0.515E-01
   7.275  0.547E-01  0.502E-01  0.547E-01  0.501E-01
   7.285  0.612E-01  0.514E-01  0.611E-01  0.514E-01
   7.295  0.704E-01  0.554E-01  0.704E-01  0.554E-01
   7.305  0.822E-01  0.622E-01  0.821E-01  0.622E-01
   7.315  0.961E-01  0.719E-01  0.961E-01  0.718E-01
   7.325  0.112E+00  0.840E-01  0.112E+00  0.839E-01
   7.335  0.128E+00  0.982E-01  0.128E+00  0.981E-01
   7.345  0.145E+00  0.114E+00  0.145E+00  0.114E+00
   7.355  0.161E+00  0.130E+00  0.161E+00  0.130E+00
   7.365  0.175E+00  0.147E+00  0.175E+00  0.147E+00
   7.375  0.188E+00  0.163E+00  0.188E+00  0.163E+00
   7.385  0.197E+00  0.177E+00  0.197E+00  0.177E+00
   7.395  0.203E+00  0.189E+00  0.203E+00  0.189E+00
   7.405  0.206E+00  0.198E+00  0.206E+00  0.198E+00
   7.415  0.205E+00  0.204E+00  0.205E+00  0.204E+00
   7.425  0.200E+00  0.206E+00  0.200E+00  0.206E+00
   7.435  0.192E+00  0.205E+00  0.192E+00  0.204E+00
   7.445  0.181E+00  0.199E+00  0.181E+00  0.199E+00
   7.455  0.168E+00  0.191E+00  0.168E+00  0.191E+00
   7.465  0.154E+00  0.180E+00  0.154E+00  0.180E+00
   7.475  0.139E+00  0.166E+00  0.139E+00  0.166E+00
   7.485  0.124E+00  0.152E+00  0.124E+00  0.152E+00
   7.495  0.110E+00  0.136E+00  0.110E+00  0.136E+00
   7.505  0.979E-01  0.122E+00  0.979E-01  0.122E+00
   7.515  0.881E-01  0.108E+00  0.881E-01  0.108E+00
   7.525  0.811E-01  0.962E-01  0.810E-01  0.961E-01
   7.535  0.770E-01  0.867E-01  0.769E-01  0.866E-01
   7.545  0.758E-01  0.800E-01  0.757E-01  0.800E-01
   7.555  0.774E-01  0.763E-01  0.773E-01  0.762E-01
   7.565  0.814E-01  0.755E-01  0.814E-01  0.754E-01
   7.575  0.874E-01  0.774E-01  0.873E-01  0.773E-01
   7.585  0.947E-01  0.817E-01  0.947E-01  0.817E-01
   7.595  0.103E+00  0.880E-01  0.103E+00  0.879E-01
   7.605  0.111E+00  0.954E-01  0.111E+00  0.954E-01
   7.615  0.118E+00  0.104E+00  0.118E+00  0.103E+00
   7.625  0.124E+00  0.111E+00  0.124E+00  0.111E+00
   7.635  0.128E+00  0.119E+00  0.128E+00  0.119E+00
   7.645  0.130E+00  0.125E+00  0.130E+00  0.124E+00
   7.655  0.130E+00  0.129E+00  0.130E+00  0.128E+00
   7.665  0.127E+00  0.130E+00  0.127E+00  0.130E+00
   7.675  0.122E+00  0.130E+00  0.122E+00  0.130E+00
   7.685  0.115E+00  0.127E+00  0.115E+00  0.127E+00
   7.695  0.107E+00  0.122E+00  0.107E+00  0.122E+00
   7.705  0.969E-01  0.115E+00  0.968E-01  0.114E+00
   7.715  0.864E-01  0.106E+00  0.863E-01  0.106E+00
   7.725  0.758E-01  0.958E-01  0.758E-01  0.957E-01
   7.735  0.658E-01  0.853E-01  0.657E-01  0.852E-01
   7.745  0.567E-01  0.748E-01  0.566E-01  0.747E-01
   7.755  0.491E-01  0.648E-01  0.490E-01  0.647E-01
   7.765  0.433E-01  0.559E-01  0.432E-01  0.558E-01
   7.775  0.394E-01  0.485E-01  0.394E-01  0.484E-01
   7.785  0.377E-01  0.428E-01  0.377E-01  0.428E-01
   7.795  0.380E-01  0.393E-01  0.380E-01  0.392E-01
   7.805  0.402E-01  0.377E-01  0.401E-01  0.377E-01
   7.815  0.439E-01  0.383E-01  0.439E-01  0.383E-01
   7.825  0.489E-01  0.406E-01  0.489E-01  0.406E-01
   7.835  0.546E-01  0.446E-01  0.546E-01  0.445E-01
   7.845  0.606E-01  0.496E-01  0.606E-01  0.496E-01
   7.855  0.664E-01  0.554E-01  0.663E-01  0.554E-01
   7.865  0.715E-01  0.614E-01  0.715E-01  0.614E-01
   7.875  0.757E-01  0.671E-01  0.756E-01  0.671E-01
   7.885  0.785E-01  0.722E-01  0.785E-01  0.722E-01
   7.895  0.800E-01  0.762E-01  0.800E-01  0.762E-01
   7.905  0.802E-01  0.789E-01  0.802E-01  0.789E-01
   7.915  0.792E-01  0.802E-01  0.792E-01  0.802E-01
   7.925  0.774E-01  0.802E-01  0.774E-01  0.801E-01
   7.935  0.753E-01  0.790E-01  0.753E-01  0.790E-01
   7.945  0.736E-01  0.771E-01  0.736E-01  0.771E-01
   7.955  0.730E-01  0.750E-01  0.730E-01  0.749E-01
   7.965  0.742E-01  0.732E-01  0.742E-01  0.732E-01
   7.975  0.780E-01  0.727E-01  0.780E-01  0.727E-01
   7.985  0.851E-01  0.741E-01  0.851E-01  0.740E-01
   7.995  0.959E-01  0.781E-01  0.959E-01  0.781E-01
   8.005  0.111E+00  0.854E-01  0.111E+00  0.854E-01
   8.015  0.130E+00  0.966E-01  0.130E+00  0.965E-01
   8.025  0.153E+00  0.112E+00  0.153E+00  0.112E+00
   8.035  0.180E+00  0.131E+00  0.179E+00  0.131E+00
   8.045  0.209E+00  0.155E+00  0.209E+00  0.155E+00
   8.055  0.240E+00  0.182E+00  0.240E+00  0.181E+00
   8.065  0.271E+00  0.211E+00  0.271E+00  0.211E+00
   8.075  0.302E+00  0.242E+00  0.302E+00  0.242E+00
   8.085  0.331E+00  0.274E+00  0.331E+00  0.274E+00
   8.095  0.356E+00  0.305E+00  0.356E+00  0.304E+00
   8.105  0.378E+00  0.333E+00  0.377E+00  0.333E+00
   8.115  0.393E+00  0.358E+00  0.393E+00  0.358E+00
   8.125  0.403E+00  0.379E+00  0.403E+00  0.379E+00
   8.135  0.408E+00  0.394E+00  0.407E+00  0.394E+00
   8.145  0.406E+00  0.404E+00  0.406E+00  0.403E+00
   8.155  0.400E+00  0.407E+00  0.400E+00  0.407E+00
   8.165  0.390E+00  0.405E+00  0.389E+00  0.405E+00
   8.175  0.377E+00  0.398E+00  0.376E+00  0.398E+00
   8.185  0.362E+00  0.387E+00  0.362E+00  0.387E+00
   8.195  0.348E+00  0.374E+00  0.348E+00  0.374E+00
   8.205  0.336E+00  0.359E+00  0.336E+00  0.359E+00
   8.215  0.327E+00  0.345E+00  0.326E+00  0.345E+00
   8.225  0.321E+00  0.332E+00  0.321E+00  0.332E+00
   8.235  0.320E+00  0.323E+00  0.320E+00  0.322E+00
   8.245  0.323E+00  0.317E+00  0.323E+00  0.317E+00
   8.255  0.331E+00  0.316E+00  0.330E+00  0.315E+00
   8.265  0.342E+00  0.319E+00  0.341E+00  0.319E+00
   8.275  0.355E+00  0.327E+00  0.355E+00  0.326E+00
   8.285  0.370E+00  0.338E+00  0.370E+00  0.338E+00
   8.295  0.385E+00  0.352E+00  0.384E+00  0.352E+00
   8.305  0.397E+00  0.367E+00  0.397E+00  0.367E+00
   8.315  0.407E+00  0.382E+00  0.407E+00  0.382E+00
   8.325  0.413E+00  0.396E+00  0.412E+00  0.395E+00
   8.335  0.413E+00  0.406E+00  0.412E+00  0.406E+00
   8.345  0.407E+00  0.412E+00  0.406E+00  0.411E+00
   8.355  0.394E+00  0.412E+00  0.394E+00  0.412E+00
   8.365  0.376E+00  0.407E+00  0.376E+00  0.406E+00
   8.375  0.353E+00  0.395E+00  0.352E+00  0.395E+00
   8.385  0.324E+00  0.377E+00  0.324E+00  0.377E+00
   8.395  0.292E+00  0.354E+00  0.292E+00  0.354E+00
   8.405  0.257E+00  0.326E+00  0.257E+00  0.325E+00
   8.415  0.221E+00  0.294E+00  0.221E+00  0.293E+00
   8.425  0.185E+00  0.259E+00  0.185E+00  0.259E+00
   8.435  0.150E+00  0.223E+00  0.150E+00  0.223E+00
   8.445  0.117E+00  0.187E+00  0.117E+00  0.187E+00
   8.455  0.867E-01  0.152E+00  0.866E-01  0.152E+00
   8.465  0.596E-01  0.119E+00  0.596E-01  0.118E+00
   8.475  0.362E-01  0.881E-01  0.362E-01  0.880E-01
   8.485  0.165E-01  0.609E-01  0.165E-01  0.608E-01
   8.495  0.433E-03  0.373E-01  0.434E-03  0.373E-01
   8.505 -0.122E-01  0.174E-01 -0.122E-01  0.174E-01
   8.515 -0.219E-01  0.122E-02 -0.218E-01  0.122E-02
   8.525 -0.288E-01 -0.116E-01 -0.287E-01 -0.116E-01
   8.535 -0.334E-01 -0.213E-01 -0.334E-01 -0.213E-01
   8.545 -0.362E-01 -0.283E-01 -0.362E-01 -0.283E-01
   8.555 -0.374E-01 -0.330E-01 -0.374E-01 -0.330E-01
   8.565 -0.374E-01 -0.358E-01 -0.374E-01 -0.358E-01
   8.575 -0.364E-01 -0.371E-01 -0.363E-01 -0.371E-01
   8.585 -0.343E-01 -0.371E-01 -0.343E-01 -0.370E-01
   8.595 -0.313E-01 -0.360E-01 -0.313E-01 -0.360E-01
   8.605 -0.274E-01 -0.340E-01 -0.273E-01 -0.339E-01
   8.615 -0.223E-01 -0.310E-01 -0.223E-01 -0.310E-01
   8.625 -0.160E-01 -0.271E-01 -0.160E-01 -0.270E-01
   8.635 -0.821E-02 -0.221E-01 -0.820E-02 -0.220E-01
   8.645  0.119E-02 -0.158E-01  0.119E-02 -0.158E-01
   8.655  0.124E-01 -0.816E-02  0.124E-01 -0.815E-02
   8.665  0.255E-01  0.106E-02  0.255E-01  0.105E-02
   8.675  0.406E-01  0.120E-01  0.406E-01  0.120E-01
   8.685  0.578E-01  0.248E-01  0.578E-01  0.247E-01
   8.695  0.771E-01  0.395E-01  0.770E-01  0.394E-01
   8.705  0.984E-01  0.561E-01  0.982E-01  0.560E-01
   8.715  0.121E+00  0.747E-01  0.121E+00  0.746E-01
   8.725  0.146E+00  0.951E-01  0.146E+00  0.949E-01
   8.735  0.173E+00  0.117E+00  0.172E+00  0.117E+00
   8.745  0.200E+00  0.141E+00  0.200E+00  0.141E+00
   8.755  0.229E+00  0.166E+00  0.229E+00  0.166E+00
   8.765  0.259E+00  0.192E+00  0.258E+00  0.192E+00
   8.775  0.289E+00  0.220E+00  0.288E+00  0.219E+00
   8.785  0.319E+00  0.248E+00  0.319E+00  0.247E+00
   8.795  0.349E+00  0.276E+00  0.349E+00  0.276E+00
   8.805  0.378E+00  0.305E+00  0.378E+00  0.305E+00
   8.815  0.407E+00  0.334E+00  0.406E+00  0.333E+00
   8.825  0.433E+00  0.362E+00  0.433E+00  0.362E+00
   8.835  0.458E+00  0.390E+00  0.457E+00  0.389E+00
   8.845  0.479E+00  0.417E+00  0.478E+00  0.416E+00
   8.855  0.497E+00  0.441E+00  0.496E+00  0.441E+00
   8.865  0.511E+00  0.464E+00  0.510E+00  0.463E+00
   8.875  0.520E+00  0.483E+00  0.519E+00  0.483E+00
   8.885  0.523E+00  0.499E+00  0.523E+00  0.498E+00
   8.895  0.521E+00  0.511E+00  0.521E+00  0.510E+00
   8.905  0.514E+00  0.518E+00  0.513E+00  0.517E+00
   8.915  0.500E+00  0.519E+00  0.500E+00  0.518E+00
   8.925  0.481E+00  0.515E+00  0.480E+00  0.514E+00
   8.935  0.457E+00  0.505E+00  0.456E+00  0.504E+00
   8.945  0.428E+00  0.489E+00  0.427E+00  0.488E+00
   8.955  0.395E+00  0.468E+00  0.395E+00  0.467E+00
   8.965  0.360E+00  0.442E+00  0.359E+00  0.441E+00
   8.975  0.323E+00  0.411E+00  0.323E+00  0.411E+00
   8.985  0.286E+00  0.377E+00  0.285E+00  0.377E+00
   8.995  0.249E+00  0.341E+00  0.249E+00  0.341E+00
   9.005  0.215E+00  0.304E+00  0.215E+00  0.304E+00
   9.015  0.185E+00  0.267E+00  0.185E+00  0.267E+00
   9.025  0.159E+00  0.232E+00  0.159E+00  0.232E+00
   9.035  0.139E+00  0.200E+00  0.139E+00  0.199E+00
   9.045  0.126E+00  0.171E+00  0.125E+00  0.171E+00
   9.055  0.120E+00  0.148E+00  0.119E+00  0.148E+00
   9.065  0.121E+00  0.131E+00  0.121E+00  0.131E+00
   9.075  0.131E+00  0.122E+00  0.131E+00  0.121E+00
   9.085  0.149E+00  0.119E+00  0.148E+00  0.119E+00
   9.095  0.174E+00  0.125E+00  0.173E+00  0.125E+00
   9.105  0.205E+00  0.138E+00  0.205E+00  0.138E+00
   9.115  0.243E+00  0.159E+00  0.242E+00  0.159E+00
   9.125  0.285E+00  0.187E+00  0.284E+00  0.186E+00
   9.135  0.330E+00  0.220E+00  0.329E+00  0.220E+00
   9.145  0.377E+00  0.259E+00  0.376E+00  0.259E+00
   9.155  0.424E+00  0.302E+00  0.423E+00  0.302E+00
   9.165  0.470E+00  0.347E+00  0.469E+00  0.347E+00
   9.175  0.513E+00  0.393E+00  0.512E+00  0.393E+00
   9.185  0.553E+00  0.439E+00  0.552E+00  0.438E+00
   9.195  0.588E+00  0.482E+00  0.587E+00  0.482E+00
   9.205  0.618E+00  0.523E+00  0.617E+00  0.523E+00
   9.215  0.642E+00  0.560E+00  0.641E+00  0.560E+00
   9.225  0.660E+00  0.593E+00  0.659E+00  0.592E+00
   9.235  0.672E+00  0.620E+00  0.671E+00  0.619E+00
   9.245  0.679E+00  0.642E+00  0.678E+00  0.641E+00
   9.255  0.680E+00  0.658E+00  0.679E+00  0.657E+00
   9.265  0.676E+00  0.668E+00  0.675E+00  0.667E+00
   9.275  0.667E+00  0.674E+00  0.666E+00  0.673E+00
   9.285  0.654E+00  0.674E+00  0.654E+00  0.673E+00
   9.295  0.637E+00  0.670E+00  0.637E+00  0.669E+00
   9.305  0.617E+00  0.661E+00  0.616E+00  0.660E+00
   9.315  0.592E+00  0.648E+00  0.591E+00  0.647E+00
   9.325  0.564E+00  0.631E+00  0.563E+00  0.630E+00
   9.335  0.532E+00  0.609E+00  0.531E+00  0.609E+00
   9.345  0.497E+00  0.584E+00  0.496E+00  0.584E+00
   9.355  0.459E+00  0.556E+00  0.458E+00  0.555E+00
   9.365  0.418E+00  0.523E+00  0.418E+00  0.523E+00
   9.375  0.375E+00  0.488E+00  0.374E+00  0.487E+00
   9.385  0.330E+00  0.449E+00  0.329E+00  0.448E+00
   9.395  0.283E+00  0.407E+00  0.283E+00  0.407E+00
   9.405  0.236E+00  0.363E+00  0.236E+00  0.363E+00
   9.415  0.189E+00  0.318E+00  0.189E+00  0.317E+00
   9.425  0.143E+00  0.272E+00  0.143E+00  0.271E+00
   9.435  0.981E-01  0.225E+00  0.980E-01  0.225E+00
   9.445  0.555E-01  0.179E+00  0.554E-01  0.179E+00
   9.455  0.157E-01  0.134E+00  0.157E-01  0.134E+00
   9.465 -0.205E-01  0.906E-01 -0.204E-01  0.905E-01
   9.475 -0.523E-01  0.498E-01 -0.522E-01  0.497E-01
   9.485 -0.790E-01  0.120E-01 -0.789E-01  0.120E-01
   9.495 -0.996E-01 -0.224E-01 -0.994E-01 -0.224E-01
   9.505 -0.113E+00 -0.528E-01 -0.113E+00 -0.527E-01
   9.515 -0.118E+00 -0.785E-01 -0.118E+00 -0.784E-01
   9.525 -0.114E+00 -0.989E-01 -0.113E+00 -0.988E-01
   9.535 -0.978E-01 -0.113E+00 -0.976E-01 -0.113E+00
   9.545 -0.694E-01 -0.120E+00 -0.693E-01 -0.120E+00
   9.555 -0.269E-01 -0.119E+00 -0.268E-01 -0.119E+00
   9.565  0.309E-01 -0.108E+00  0.309E-01 -0.108E+00
   9.575  0.105E+00 -0.861E-01  0.105E+00 -0.860E-01
   9.585  0.196E+00 -0.514E-01  0.195E+00 -0.513E-01
   9.595  0.303E+00 -0.270E-02  0.302E+00 -0.271E-02
   9.605  0.426E+00  0.612E-01  0.425E+00  0.611E-01
   9.615  0.562E+00  0.141E+00  0.561E+00  0.141E+00
   9.625  0.710E+00  0.237E+00  0.709E+00  0.237E+00
   9.635  0.866E+00  0.349E+00  0.864E+00  0.348E+00
   9.645  0.102E+01  0.475E+00  0.102E+01  0.475E+00
   9.655  0.118E+01  0.614E+00  0.118E+01  0.613E+00
   9.665  0.134E+01  0.763E+00  0.133E+01  0.762E+00
   9.675  0.148E+01  0.918E+00  0.147E+01  0.916E+00
   9.685  0.160E+01  0.107E+01  0.160E+01  0.107E+01
   9.695  0.171E+01  0.123E+01  0.171E+01  0.122E+01
   9.705  0.179E+01  0.137E+01  0.179E+01  0.137E+01
   9.715  0.185E+01  0.150E+01  0.185E+01  0.150E+01
   9.725  0.188E+01  0.161E+01  0.188E+01  0.161E+01
   9.735  0.189E+01  0.170E+01  0.189E+01  0.170E+01
   9.745  0.187E+01  0.177E+01  0.187E+01  0.177E+01
   9.755  0.183E+01  0.181E+01  0.183E+01  0.180E+01
   9.765  0.177E+01  0.182E+01  0.177E+01  0.182E+01
   9.775  0.170E+01  0.180E+01  0.170E+01  0.180E+01
   9.785  0.162E+01  0.176E+01  0.162E+01  0.176E+01
   9.795  0.153E+01  0.170E+01  0.153E+01  0.170E+01
   9.805  0.144E+01  0.163E+01  0.144E+01  0.162E+01
   9.815  0.136E+01  0.154E+01  0.135E+01  0.153E+01
   9.825  0.127E+01  0.144E+01  0.127E+01  0.144E+01
   9.835  0.119E+01  0.134E+01  0.119E+01  0.134E+01
   9.845  0.112E+01  0.125E+01  0.112E+01  0.125E+01
   9.855  0.105E+01  0.116E+01  0.105E+01  0.116E+01
   9.865  0.994E+00  0.108E+01  0.993E+00  0.108E+01
   9.875  0.938E+00  0.101E+01  0.937E+00  0.101E+01
   9.885  0.884E+00  0.957E+00  0.884E+00  0.956E+00
   9.895  0.832E+00  0.913E+00  0.831E+00  0.912E+00
   9.905  0.779E+00  0.878E+00  0.779E+00  0.877E+00
   9.915  0.725E+00  0.852E+00  0.725E+00  0.851E+00
   9.925  0.669E+00  0.831E+00  0.668E+00  0.831E+00
   9.935  0.610E+00  0.813E+00  0.609E+00  0.812E+00
   9.945  0.548E+00  0.795E+00  0.548E+00  0.794E+00
   9.955  0.486E+00  0.774E+00  0.485E+00  0.773E+00
   9.965  0.423E+00  0.748E+00  0.423E+00  0.748E+00
   9.975  0.363E+00  0.716E+00  0.362E+00  0.716E+00
   9.985  0.306E+00  0.677E+00  0.306E+00  0.677E+00
   9.995  0.257E+00  0.631E+00  0.256E+00  0.631E+00
  10.005  0.217E+00  0.579E+00  0.216E+00  0.578E+00
  10.015  0.189E+00  0.521E+00  0.189E+00  0.521E+00
  10.025  0.177E+00  0.461E+00  0.177E+00  0.461E+00
  10.035  0.182E+00  0.401E+00  0.182E+00  0.401E+00
  10.045  0.208E+00  0.344E+00  0.208E+00  0.343E+00
  10.055  0.257E+00  0.292E+00  0.256E+00  0.292E+00
  10.065  0.329E+00  0.250E+00  0.328E+00  0.250E+00
  10.075  0.425E+00  0.221E+00  0.425E+00  0.221E+00
  10.085  0.547E+00  0.208E+00  0.546E+00  0.207E+00
  10.095  0.692E+00  0.213E+00  0.691E+00  0.213E+00
  10.105  0.859E+00  0.240E+00  0.858E+00  0.240E+00
  10.115  0.104E+01  0.290E+00  0.104E+01  0.290E+00
  10.125  0.125E+01  0.364E+00  0.125E+01  0.364E+00
  10.135  0.146E+01  0.464E+00  0.146E+01  0.463E+00
  10.145  0.168E+01  0.587E+00  0.168E+01  0.586E+00
  10.155  0.190E+01  0.733E+00  0.189E+01  0.732E+00
  10.165  0.211E+01  0.900E+00  0.211E+01  0.899E+00
  10.175  0.231E+01  0.108E+01  0.231E+01  0.108E+01
  10.185  0.250E+01  0.128E+01  0.250E+01  0.128E+01
  10.195  0.266E+01  0.149E+01  0.266E+01  0.148E+01
  10.205  0.280E+01  0.169E+01  0.280E+01  0.169E+01
  10.215  0.291E+01  0.190E+01  0.290E+01  0.190E+01
  10.225  0.298E+01  0.210E+01  0.298E+01  0.210E+01
  10.235  0.302E+01  0.228E+01  0.302E+01  0.228E+01
  10.245  0.303E+01  0.245E+01  0.303E+01  0.244E+01
  10.255  0.301E+01  0.259E+01  0.301E+01  0.259E+01
  10.265  0.297E+01  0.270E+01  0.296E+01  0.270E+01
  10.275  0.289E+01  0.279E+01  0.289E+01  0.279E+01
  10.285  0.280E+01  0.284E+01  0.280E+01  0.284E+01
  10.295  0.269E+01  0.287E+01  0.269E+01  0.287E+01
  10.305  0.257E+01  0.286E+01  0.257E+01  0.286E+01
  10.315  0.245E+01  0.283E+01  0.245E+01  0.283E+01
  10.325  0.233E+01  0.278E+01  0.233E+01  0.277E+01
  10.335  0.221E+01  0.270E+01  0.221E+01  0.270E+01
  10.345  0.211E+01  0.261E+01  0.211E+01  0.261E+01
  10.355  0.202E+01  0.251E+01  0.201E+01  0.251E+01
  10.365  0.194E+01  0.241E+01  0.194E+01  0.241E+01
  10.375  0.189E+01  0.230E+01  0.189E+01  0.230E+01
  10.385  0.185E+01  0.221E+01  0.185E+01  0.221E+01
  10.395  0.183E+01  0.212E+01  0.183E+01  0.212E+01
  10.405  0.183E+01  0.205E+01  0.183E+01  0.204E+01
  10.415  0.184E+01  0.199E+01  0.184E+01  0.199E+01
  10.425  0.186E+01  0.195E+01  0.186E+01  0.195E+01
  10.435  0.189E+01  0.192E+01  0.189E+01  0.192E+01
  10.445  0.192E+01  0.192E+01  0.192E+01  0.191E+01
  10.455  0.194E+01  0.192E+01  0.194E+01  0.192E+01
  10.465  0.196E+01  0.194E+01  0.196E+01  0.194E+01
  10.475  0.197E+01  0.197E+01  0.197E+01  0.197E+01
  10.485  0.197E+01  0.200E+01  0.197E+01  0.200E+01
  10.495  0.195E+01  0.203E+01  0.195E+01  0.203E+01
  10.505  0.193E+01  0.206E+01  0.193E+01  0.206E+01
  10.515  0.189E+01  0.208E+01  0.189E+01  0.208E+01
  10.525  0.185E+01  0.209E+01  0.185E+01  0.208E+01
  10.535  0.181E+01  0.208E+01  0.181E+01  0.208E+01
  10.545  0.177E+01  0.206E+01  0.177E+01  0.205E+01
  10.555  0.174E+01  0.202E+01  0.174E+01  0.202E+01
  10.565  0.172E+01  0.197E+01  0.172E+01  0.196E+01
  10.575  0.173E+01  0.190E+01  0.172E+01  0.190E+01
  10.585  0.176E+01  0.183E+01  0.175E+01  0.183E+01
  10.595  0.181E+01  0.176E+01  0.181E+01  0.176E+01
  10.605  0.190E+01  0.169E+01  0.190E+01  0.169E+01
  10.615  0.203E+01  0.163E+01  0.203E+01  0.163E+01
  10.625  0.218E+01  0.159E+01  0.218E+01  0.159E+01
  10.635  0.236E+01  0.157E+01  0.236E+01  0.157E+01
  10.645  0.257E+01  0.157E+01  0.257E+01  0.157E+01
  10.655  0.279E+01  0.160E+01  0.279E+01  0.160E+01
  10.665  0.303E+01  0.167E+01  0.303E+01  0.166E+01
  10.675  0.327E+01  0.176E+01  0.327E+01  0.176E+01
  10.685  0.350E+01  0.189E+01  0.350E+01  0.189E+01
  10.695  0.373E+01  0.205E+01  0.372E+01  0.204E+01
  10.705  0.393E+01  0.223E+01  0.393E+01  0.223E+01
  10.715  0.411E+01  0.243E+01  0.411E+01  0.243E+01
  10.725  0.426E+01  0.265E+01  0.426E+01  0.265E+01
  10.735  0.438E+01  0.287E+01  0.438E+01  0.287E+01
  10.745  0.446E+01  0.310E+01  0.446E+01  0.309E+01
  10.755  0.451E+01  0.331E+01  0.450E+01  0.331E+01
  10.765  0.452E+01  0.352E+01  0.452E+01  0.351E+01
  10.775  0.450E+01  0.370E+01  0.450E+01  0.370E+01
  10.785  0.445E+01  0.387E+01  0.445E+01  0.386E+01
  10.795  0.438E+01  0.400E+01  0.437E+01  0.400E+01
  10.805  0.428E+01  0.411E+01  0.428E+01  0.410E+01
  10.815  0.417E+01  0.418E+01  0.416E+01  0.418E+01
  10.825  0.404E+01  0.423E+01  0.404E+01  0.423E+01
  10.835  0.391E+01  0.425E+01  0.390E+01  0.425E+01
  10.845  0.376E+01  0.424E+01  0.376E+01  0.424E+01
  10.855  0.362E+01  0.421E+01  0.362E+01  0.421E+01
  10.865  0.348E+01  0.416E+01  0.348E+01  0.416E+01
  10.875  0.334E+01  0.409E+01  0.333E+01  0.409E+01
  10.885  0.320E+01  0.401E+01  0.319E+01  0.401E+01
  10.895  0.306E+01  0.392E+01  0.306E+01  0.392E+01
  10.905  0.292E+01  0.382E+01  0.292E+01  0.382E+01
  10.915  0.279E+01  0.372E+01  0.279E+01  0.371E+01
  10.925  0.267E+01  0.361E+01  0.266E+01  0.360E+01
  10.935  0.254E+01  0.350E+01  0.254E+01  0.349E+01
  10.945  0.241E+01  0.338E+01  0.241E+01  0.338E+01
  10.955  0.229E+01  0.327E+01  0.228E+01  0.327E+01
  10.965  0.216E+01  0.316E+01  0.216E+01  0.316E+01
  10.975  0.204E+01  0.305E+01  0.203E+01  0.305E+01
  10.985  0.191E+01  0.294E+01  0.191E+01  0.294E+01
  10.995  0.179E+01  0.283E+01  0.179E+01  0.282E+01
  11.005  0.167E+01  0.271E+01  0.167E+01  0.271E+01
  11.015  0.157E+01  0.260E+01  0.157E+01  0.259E+01
  11.025  0.147E+01  0.248E+01  0.147E+01  0.248E+01
  11.035  0.138E+01  0.236E+01  0.138E+01  0.235E+01
  11.045  0.132E+01  0.223E+01  0.132E+01  0.223E+01
  11.055  0.127E+01  0.211E+01  0.127E+01  0.211E+01
  11.065  0.125E+01  0.198E+01  0.125E+01  0.198E+01
  11.075  0.126E+01  0.186E+01  0.126E+01  0.186E+01
  11.085  0.130E+01  0.174E+01  0.129E+01  0.173E+01
  11.095  0.136E+01  0.162E+01  0.136E+01  0.162E+01
  11.105  0.145E+01  0.152E+01  0.145E+01  0.151E+01
  11.115  0.158E+01  0.143E+01  0.158E+01  0.142E+01
  11.125  0.172E+01  0.135E+01  0.172E+01  0.135E+01
  11.135  0.189E+01  0.131E+01  0.188E+01  0.130E+01
  11.145  0.206E+01  0.128E+01  0.206E+01  0.128E+01
  11.155  0.225E+01  0.129E+01  0.225E+01  0.129E+01
  11.165  0.244E+01  0.133E+01  0.244E+01  0.133E+01
  11.175  0.262E+01  0.140E+01  0.262E+01  0.139E+01
  11.185  0.279E+01  0.150E+01  0.279E+01  0.149E+01
  11.195  0.295E+01  0.162E+01  0.294E+01  0.162E+01
  11.205  0.308E+01  0.178E+01  0.308E+01  0.178E+01
  11.215  0.320E+01  0.195E+01  0.319E+01  0.195E+01
  11.225  0.329E+01  0.213E+01  0.329E+01  0.213E+01
  11.235  0.336E+01  0.232E+01  0.336E+01  0.232E+01
  11.245  0.342E+01  0.251E+01  0.342E+01  0.251E+01
  11.255  0.347E+01  0.268E+01  0.347E+01  0.268E+01
  11.265  0.351E+01  0.284E+01  0.350E+01  0.284E+01
  11.275  0.354E+01  0.298E+01  0.354E+01  0.298E+01
  11.285  0.358E+01  0.310E+01  0.358E+01  0.309E+01
  11.295  0.363E+01  0.318E+01  0.363E+01  0.318E+01
  11.305  0.368E+01  0.324E+01  0.368E+01  0.324E+01
  11.315  0.375E+01  0.328E+01  0.374E+01  0.327E+01
  11.325  0.382E+01  0.329E+01  0.382E+01  0.329E+01
  11.335  0.389E+01  0.330E+01  0.389E+01  0.329E+01
  11.345  0.397E+01  0.329E+01  0.397E+01  0.329E+01
  11.355  0.404E+01  0.329E+01  0.404E+01  0.329E+01
  11.365  0.409E+01  0.329E+01  0.409E+01  0.329E+01
  11.375  0.412E+01  0.331E+01  0.412E+01  0.330E+01
  11.385  0.412E+01  0.334E+01  0.412E+01  0.334E+01
  11.395  0.409E+01  0.339E+01  0.409E+01  0.339E+01
  11.405  0.401E+01  0.346E+01  0.401E+01  0.346E+01
  11.415  0.389E+01  0.355E+01  0.389E+01  0.354E+01
  11.425  0.373E+01  0.364E+01  0.373E+01  0.364E+01
  11.435  0.352E+01  0.374E+01  0.352E+01  0.374E+01
  11.445  0.328E+01  0.384E+01  0.328E+01  0.383E+01
  11.455  0.300E+01  0.392E+01  0.300E+01  0.392E+01
  11.465  0.270E+01  0.398E+01  0.270E+01  0.398E+01
  11.475  0.239E+01  0.401E+01  0.239E+01  0.400E+01
  11.485  0.207E+01  0.400E+01  0.207E+01  0.399E+01
  11.495  0.175E+01  0.394E+01  0.175E+01  0.394E+01
  11.505  0.145E+01  0.384E+01  0.145E+01  0.384E+01
  11.515  0.117E+01  0.369E+01  0.117E+01  0.369E+01
  11.525  0.921E+00  0.350E+01  0.921E+00  0.349E+01
  11.535  0.706E+00  0.326E+01  0.705E+00  0.326E+01
  11.545  0.529E+00  0.299E+01  0.529E+00  0.299E+01
  11.555  0.393E+00  0.270E+01  0.392E+00  0.270E+01
  11.565  0.298E+00  0.239E+01  0.297E+00  0.238E+01
  11.575  0.243E+00  0.207E+01  0.243E+00  0.207E+01
  11.585  0.228E+00  0.175E+01  0.227E+00  0.175E+01
  11.595  0.248E+00  0.145E+01  0.248E+00  0.145E+01
  11.605  0.302E+00  0.118E+01  0.302E+00  0.117E+01
  11.615  0.385E+00  0.926E+00  0.384E+00  0.925E+00
  11.625  0.493E+00  0.712E+00  0.492E+00  0.711E+00
  11.635  0.622E+00  0.536E+00  0.622E+00  0.536E+00
  11.645  0.769E+00  0.402E+00  0.768E+00  0.402E+00
  11.655  0.929E+00  0.310E+00  0.928E+00  0.310E+00
  11.665  0.110E+01  0.260E+00  0.110E+01  0.259E+00
  11.675  0.127E+01  0.249E+00  0.127E+01  0.249E+00
  11.685  0.145E+01  0.276E+00  0.145E+01  0.275E+00
  11.695  0.163E+01  0.336E+00  0.162E+01  0.336E+00
  11.705  0.180E+01  0.426E+00  0.180E+01  0.426E+00
  11.715  0.196E+01  0.543E+00  0.196E+01  0.542E+00
  11.725  0.212E+01  0.680E+00  0.211E+01  0.680E+00
  11.735  0.226E+01  0.835E+00  0.226E+01  0.834E+00
  11.745  0.239E+01  0.100E+01  0.239E+01  0.100E+01
  11.755  0.250E+01  0.118E+01  0.250E+01  0.118E+01
  11.765  0.260E+01  0.136E+01  0.260E+01  0.136E+01
  11.775  0.269E+01  0.154E+01  0.269E+01  0.154E+01
  11.785  0.275E+01  0.172E+01  0.275E+01  0.172E+01
  11.795  0.280E+01  0.189E+01  0.280E+01  0.189E+01
  11.805  0.284E+01  0.205E+01  0.284E+01  0.205E+01
  11.815  0.286E+01  0.220E+01  0.285E+01  0.220E+01
  11.825  0.286E+01  0.233E+01  0.286E+01  0.233E+01
  11.835  0.285E+01  0.246E+01  0.284E+01  0.245E+01
  11.845  0.282E+01  0.256E+01  0.282E+01  0.256E+01
  11.855  0.278E+01  0.265E+01  0.278E+01  0.264E+01
  11.865  0.273E+01  0.272E+01  0.273E+01  0.271E+01
  11.875  0.268E+01  0.277E+01  0.268E+01  0.277E+01
  11.885  0.262E+01  0.280E+01  0.262E+01  0.280E+01
  11.895  0.256E+01  0.282E+01  0.256E+01  0.282E+01
  11.905  0.250E+01  0.282E+01  0.250E+01  0.282E+01
  11.915  0.245E+01  0.281E+01  0.245E+01  0.281E+01
  11.925  0.242E+01  0.278E+01  0.242E+01  0.278E+01
  11.935  0.240E+01  0.274E+01  0.240E+01  0.274E+01
  11.945  0.241E+01  0.269E+01  0.241E+01  0.269E+01
  11.955  0.244E+01  0.263E+01  0.244E+01  0.263E+01
  11.965  0.250E+01  0.256E+01  0.250E+01  0.256E+01
  11.975  0.259E+01  0.249E+01  0.259E+01  0.249E+01
  11.985  0.272E+01  0.242E+01  0.271E+01  0.242E+01
  11.995  0.286E+01  0.236E+01  0.286E+01  0.236E+01
  12.005  0.304E+01  0.231E+01  0.304E+01  0.230E+01
  12.015  0.323E+01  0.227E+01  0.323E+01  0.227E+01
  12.025  0.343E+01  0.225E+01  0.343E+01  0.225E+01
  12.035  0.364E+01  0.226E+01  0.364E+01  0.226E+01
  12.045  0.385E+01  0.230E+01  0.385E+01  0.230E+01
  12.055  0.404E+01  0.237E+01  0.404E+01  0.237E+01
  12.065  0.422E+01  0.247E+01  0.421E+01  0.247E+01
  12.075  0.436E+01  0.260E+01  0.436E+01  0.260E+01
  12.085  0.447E+01  0.277E+01  0.447E+01  0.277E+01
  12.095  0.454E+01  0.296E+01  0.453E+01  0.296E+01
  12.105  0.456E+01  0.317E+01  0.456E+01  0.317E+01
  12.115  0.454E+01  0.339E+01  0.453E+01  0.339E+01
  12.125  0.446E+01  0.362E+01  0.446E+01  0.362E+01
  12.135  0.435E+01  0.385E+01  0.434E+01  0.385E+01
  12.145  0.419E+01  0.406E+01  0.418E+01  0.406E+01
  12.155  0.399E+01  0.426E+01  0.399E+01  0.425E+01
  12.165  0.377E+01  0.442E+01  0.376E+01  0.441E+01
  12.175  0.351E+01  0.454E+01  0.351E+01  0.454E+01
  12.185  0.325E+01  0.462E+01  0.325E+01  0.462E+01
  12.195  0.298E+01  0.465E+01  0.297E+01  0.465E+01
  12.205  0.271E+01  0.463E+01  0.270E+01  0.463E+01
  12.215  0.245E+01  0.456E+01  0.244E+01  0.456E+01
  12.225  0.220E+01  0.444E+01  0.220E+01  0.444E+01
  12.235  0.198E+01  0.428E+01  0.198E+01  0.427E+01
  12.245  0.179E+01  0.407E+01  0.179E+01  0.407E+01
  12.255  0.163E+01  0.383E+01  0.163E+01  0.383E+01
  12.265  0.151E+01  0.356E+01  0.151E+01  0.356E+01
  12.275  0.142E+01  0.328E+01  0.142E+01  0.328E+01
  12.285  0.137E+01  0.299E+01  0.137E+01  0.298E+01
  12.295  0.136E+01  0.269E+01  0.136E+01  0.269E+01
  12.305  0.137E+01  0.241E+01  0.137E+01  0.241E+01
  12.315  0.141E+01  0.215E+01  0.141E+01  0.215E+01
  12.325  0.148E+01  0.191E+01  0.148E+01  0.191E+01
  12.335  0.157E+01  0.170E+01  0.157E+01  0.170E+01
  12.345  0.167E+01  0.153E+01  0.167E+01  0.153E+01
  12.355  0.178E+01  0.140E+01  0.178E+01  0.140E+01
  12.365  0.190E+01  0.131E+01  0.190E+01  0.131E+01
  12.375  0.202E+01  0.126E+01  0.202E+01  0.126E+01
  12.385  0.214E+01  0.125E+01  0.214E+01  0.125E+01
  12.395  0.226E+01  0.127E+01  0.226E+01  0.127E+01
  12.405  0.238E+01  0.133E+01  0.238E+01  0.133E+01
  12.415  0.249E+01  0.141E+01  0.249E+01  0.141E+01
  12.425  0.260E+01  0.151E+01  0.260E+01  0.151E+01
  12.435  0.270E+01  0.162E+01  0.270E+01  0.162E+01
  12.445  0.280E+01  0.174E+01  0.280E+01  0.174E+01
  12.455  0.289E+01  0.187E+01  0.289E+01  0.186E+01
  12.465  0.297E+01  0.199E+01  0.297E+01  0.199E+01
  12.475  0.305E+01  0.211E+01  0.305E+01  0.211E+01
  12.485  0.312E+01  0.222E+01  0.312E+01  0.222E+01
  12.495  0.318E+01  0.233E+01  0.317E+01  0.233E+01
  12.505  0.322E+01  0.243E+01  0.322E+01  0.242E+01
  12.515  0.325E+01  0.252E+01  0.325E+01  0.251E+01
  12.525  0.326E+01  0.260E+01  0.326E+01  0.259E+01
  12.535  0.326E+01  0.267E+01  0.326E+01  0.267E+01
  12.545  0.323E+01  0.274E+01  0.323E+01  0.274E+01
  12.555  0.319E+01  0.281E+01  0.319E+01  0.281E+01
  12.565  0.313E+01  0.287E+01  0.313E+01  0.287E+01
  12.575  0.306E+01  0.293E+01  0.305E+01  0.293E+01
  12.585  0.296E+01  0.299E+01  0.296E+01  0.299E+01
  12.595  0.286E+01  0.304E+01  0.286E+01  0.304E+01
  12.605  0.276E+01  0.309E+01  0.276E+01  0.309E+01
  12.615  0.266E+01  0.313E+01  0.265E+01  0.312E+01
  12.625  0.256E+01  0.315E+01  0.256E+01  0.315E+01
  12.635  0.247E+01  0.316E+01  0.247E+01  0.316E+01
  12.645  0.241E+01  0.316E+01  0.241E+01  0.315E+01
  12.655  0.237E+01  0.314E+01  0.237E+01  0.313E+01
  12.665  0.236E+01  0.309E+01  0.236E+01  0.309E+01
  12.675  0.239E+01  0.304E+01  0.239E+01  0.303E+01
  12.685  0.246E+01  0.296E+01  0.245E+01  0.296E+01
  12.695  0.256E+01  0.288E+01  0.256E+01  0.288E+01
  12.705  0.270E+01  0.279E+01  0.270E+01  0.278E+01
  12.715  0.289E+01  0.269E+01  0.288E+01  0.269E+01
  12.725  0.310E+01  0.260E+01  0.310E+01  0.260E+01
  12.735  0.334E+01  0.253E+01  0.334E+01  0.253E+01
  12.745  0.360E+01  0.247E+01  0.360E+01  0.247E+01
  12.755  0.388E+01  0.244E+01  0.388E+01  0.244E+01
  12.765  0.416E+01  0.244E+01  0.416E+01  0.244E+01
  12.775  0.444E+01  0.248E+01  0.443E+01  0.248E+01
  12.785  0.470E+01  0.256E+01  0.469E+01  0.256E+01
  12.795  0.493E+01  0.268E+01  0.493E+01  0.268E+01
  12.805  0.514E+01  0.284E+01  0.513E+01  0.284E+01
  12.815  0.530E+01  0.304E+01  0.529E+01  0.304E+01
  12.825  0.541E+01  0.328E+01  0.541E+01  0.327E+01
  12.835  0.547E+01  0.354E+01  0.547E+01  0.353E+01
  12.845  0.547E+01  0.382E+01  0.547E+01  0.382E+01
  12.855  0.542E+01  0.411E+01  0.541E+01  0.411E+01
  12.865  0.531E+01  0.440E+01  0.530E+01  0.440E+01
  12.875  0.515E+01  0.468E+01  0.514E+01  0.467E+01
  12.885  0.494E+01  0.494E+01  0.493E+01  0.493E+01
  12.895  0.469E+01  0.516E+01  0.469E+01  0.515E+01
  12.905  0.442E+01  0.534E+01  0.441E+01  0.534E+01
  12.915  0.413E+01  0.548E+01  0.412E+01  0.547E+01
  12.925  0.383E+01  0.556E+01  0.382E+01  0.555E+01
  12.935  0.354E+01  0.558E+01  0.353E+01  0.557E+01
  12.945  0.326E+01  0.554E+01  0.326E+01  0.553E+01
  12.955  0.301E+01  0.544E+01  0.301E+01  0.543E+01
  12.965  0.280E+01  0.529E+01  0.280E+01  0.528E+01
  12.975  0.263E+01  0.508E+01  0.263E+01  0.507E+01
  12.985  0.251E+01  0.483E+01  0.251E+01  0.483E+01
  12.995  0.245E+01  0.455E+01  0.244E+01  0.455E+01
  13.005  0.243E+01  0.425E+01  0.243E+01  0.425E+01
  13.015  0.247E+01  0.394E+01  0.247E+01  0.393E+01
  13.025  0.255E+01  0.363E+01  0.255E+01  0.362E+01
  13.035  0.268E+01  0.333E+01  0.268E+01  0.333E+01
  13.045  0.285E+01  0.306E+01  0.285E+01  0.305E+01
  13.055  0.304E+01  0.282E+01  0.304E+01  0.282E+01
  13.065  0.326E+01  0.262E+01  0.326E+01  0.262E+01
  13.075  0.350E+01  0.247E+01  0.349E+01  0.247E+01
  13.085  0.374E+01  0.238E+01  0.374E+01  0.237E+01
  13.095  0.399E+01  0.233E+01  0.398E+01  0.233E+01
  13.105  0.423E+01  0.234E+01  0.422E+01  0.234E+01
  13.115  0.446E+01  0.240E+01  0.445E+01  0.240E+01
  13.125  0.468E+01  0.251E+01  0.467E+01  0.250E+01
  13.135  0.487E+01  0.265E+01  0.487E+01  0.265E+01
  13.145  0.505E+01  0.283E+01  0.505E+01  0.283E+01
  13.155  0.520E+01  0.304E+01  0.520E+01  0.304E+01
  13.165  0.533E+01  0.326E+01  0.532E+01  0.326E+01
  13.175  0.542E+01  0.350E+01  0.541E+01  0.350E+01
  13.185  0.548E+01  0.374E+01  0.547E+01  0.374E+01
  13.195  0.551E+01  0.398E+01  0.550E+01  0.398E+01
  13.205  0.550E+01  0.422E+01  0.549E+01  0.421E+01
  13.215  0.545E+01  0.444E+01  0.544E+01  0.444E+01
  13.225  0.536E+01  0.465E+01  0.536E+01  0.465E+01
  13.235  0.525E+01  0.484E+01  0.524E+01  0.484E+01
  13.245  0.509E+01  0.501E+01  0.509E+01  0.501E+01
  13.255  0.492E+01  0.516E+01  0.491E+01  0.515E+01
  13.265  0.471E+01  0.528E+01  0.471E+01  0.527E+01
  13.275  0.450E+01  0.537E+01  0.449E+01  0.536E+01
  13.285  0.427E+01  0.543E+01  0.427E+01  0.542E+01
  13.295  0.405E+01  0.545E+01  0.404E+01  0.544E+01
  13.305  0.383E+01  0.544E+01  0.383E+01  0.543E+01
  13.315  0.364E+01  0.538E+01  0.364E+01  0.538E+01
  13.325  0.347E+01  0.529E+01  0.347E+01  0.529E+01
  13.335  0.334E+01  0.516E+01  0.334E+01  0.516E+01
  13.345  0.325E+01  0.500E+01  0.325E+01  0.499E+01
  13.355  0.320E+01  0.480E+01  0.320E+01  0.480E+01
  13.365  0.320E+01  0.458E+01  0.320E+01  0.458E+01
  13.375  0.324E+01  0.434E+01  0.324E+01  0.434E+01
  13.385  0.332E+01  0.409E+01  0.332E+01  0.408E+01
  13.395  0.343E+01  0.384E+01  0.343E+01  0.383E+01
  13.405  0.358E+01  0.360E+01  0.358E+01  0.359E+01
  13.415  0.374E+01  0.338E+01  0.374E+01  0.337E+01
  13.425  0.392E+01  0.318E+01  0.391E+01  0.318E+01
  13.435  0.410E+01  0.303E+01  0.409E+01  0.302E+01
  13.445  0.427E+01  0.291E+01  0.427E+01  0.291E+01
  13.455  0.443E+01  0.285E+01  0.443E+01  0.285E+01
  13.465  0.457E+01  0.283E+01  0.457E+01  0.283E+01
  13.475  0.469E+01  0.287E+01  0.469E+01  0.287E+01
  13.485  0.478E+01  0.295E+01  0.478E+01  0.295E+01
  13.495  0.484E+01  0.307E+01  0.483E+01  0.307E+01
  13.505  0.486E+01  0.323E+01  0.486E+01  0.323E+01
  13.515  0.486E+01  0.342E+01  0.485E+01  0.342E+01
  13.525  0.482E+01  0.363E+01  0.482E+01  0.362E+01
  13.535  0.476E+01  0.384E+01  0.476E+01  0.384E+01
  13.545  0.467E+01  0.406E+01  0.467E+01  0.406E+01
  13.555  0.456E+01  0.427E+01  0.456E+01  0.426E+01
  13.565  0.444E+01  0.446E+01  0.443E+01  0.446E+01
  13.575  0.430E+01  0.464E+01  0.429E+01  0.463E+01
  13.585  0.415E+01  0.478E+01  0.415E+01  0.478E+01
  13.595  0.400E+01  0.490E+01  0.399E+01  0.489E+01
  13.605  0.385E+01  0.498E+01  0.384E+01  0.498E+01
  13.615  0.370E+01  0.503E+01  0.369E+01  0.502E+01
  13.625  0.355E+01  0.504E+01  0.355E+01  0.504E+01
  13.635  0.342E+01  0.502E+01  0.342E+01  0.502E+01
  13.645  0.330E+01  0.497E+01  0.330E+01  0.496E+01
  13.655  0.319E+01  0.488E+01  0.319E+01  0.488E+01
  13.665  0.310E+01  0.477E+01  0.310E+01  0.477E+01
  13.675  0.302E+01  0.464E+01  0.302E+01  0.463E+01
  13.685  0.296E+01  0.448E+01  0.296E+01  0.448E+01
  13.695  0.291E+01  0.431E+01  0.291E+01  0.431E+01
  13.705  0.288E+01  0.414E+01  0.287E+01  0.413E+01
  13.715  0.285E+01  0.396E+01  0.285E+01  0.395E+01
  13.725  0.283E+01  0.378E+01  0.283E+01  0.377E+01
  13.735  0.282E+01  0.361E+01  0.282E+01  0.360E+01
  13.745  0.281E+01  0.345E+01  0.281E+01  0.344E+01
  13.755  0.280E+01  0.330E+01  0.280E+01  0.330E+01
  13.765  0.279E+01  0.318E+01  0.278E+01  0.318E+01
  13.775  0.277E+01  0.308E+01  0.277E+01  0.308E+01
  13.785  0.275E+01  0.300E+01  0.275E+01  0.300E+01
  13.795  0.273E+01  0.294E+01  0.273E+01  0.294E+01
  13.805  0.271E+01  0.290E+01  0.270E+01  0.290E+01
  13.815  0.268E+01  0.288E+01  0.268E+01  0.287E+01
  13.825  0.266E+01  0.287E+01  0.265E+01  0.286E+01
  13.835  0.263E+01  0.286E+01  0.263E+01  0.286E+01
  13.845  0.261E+01  0.286E+01  0.261E+01  0.286E+01
  13.855  0.259E+01  0.287E+01  0.259E+01  0.286E+01
  13.865  0.258E+01  0.286E+01  0.258E+01  0.286E+01
  13.875  0.258E+01  0.285E+01  0.257E+01  0.285E+01
  13.885  0.258E+01  0.283E+01  0.258E+01  0.283E+01
  13.895  0.259E+01  0.280E+01  0.259E+01  0.279E+01
  13.905  0.260E+01  0.276E+01  0.260E+01  0.275E+01
  13.915  0.262E+01  0.271E+01  0.262E+01  0.271E+01
  13.925  0.265E+01  0.266E+01  0.265E+01  0.265E+01
  13.935  0.268E+01  0.260E+01  0.267E+01  0.260E+01
  13.945  0.271E+01  0.255E+01  0.270E+01  0.255E+01
  13.955  0.274E+01  0.251E+01  0.273E+01  0.251E+01
  13.965  0.277E+01  0.248E+01  0.276E+01  0.247E+01
  13.975  0.279E+01  0.246E+01  0.279E+01  0.245E+01
  13.985  0.282E+01  0.246E+01  0.281E+01  0.245E+01
  13.995  0.284E+01  0.247E+01  0.283E+01  0.247E+01
  14.005  0.285E+01  0.251E+01  0.285E+01  0.250E+01
  14.015  0.286E+01  0.256E+01  0.285E+01  0.256E+01
  14.025  0.286E+01  0.263E+01  0.286E+01  0.263E+01
  14.035  0.287E+01  0.272E+01  0.286E+01  0.271E+01
  14.045  0.286E+01  0.281E+01  0.286E+01  0.280E+01
  14.055  0.286E+01  0.290E+01  0.286E+01  0.290E+01
  14.065  0.286E+01  0.300E+01  0.286E+01  0.299E+01
  14.075  0.286E+01  0.309E+01  0.286E+01  0.308E+01
  14.085  0.287E+01  0.317E+01  0.287E+01  0.316E+01
  14.095  0.289E+01  0.323E+01  0.288E+01  0.322E+01
  14.105  0.291E+01  0.326E+01  0.291E+01  0.326E+01
  14.115  0.295E+01  0.328E+01  0.294E+01  0.327E+01
  14.125  0.300E+01  0.327E+01  0.299E+01  0.327E+01
  14.135  0.305E+01  0.324E+01  0.304E+01  0.324E+01
  14.145  0.311E+01  0.319E+01  0.311E+01  0.319E+01
  14.155  0.318E+01  0.312E+01  0.317E+01  0.312E+01
  14.165  0.324E+01  0.305E+01  0.324E+01  0.304E+01
  14.175  0.330E+01  0.296E+01  0.330E+01  0.295E+01
  14.185  0.335E+01  0.288E+01  0.335E+01  0.287E+01
  14.195  0.339E+01  0.280E+01  0.338E+01  0.279E+01
  14.205  0.340E+01  0.274E+01  0.340E+01  0.273E+01
  14.215  0.339E+01  0.269E+01  0.339E+01  0.269E+01
  14.225  0.336E+01  0.267E+01  0.335E+01  0.267E+01
  14.235  0.329E+01  0.268E+01  0.329E+01  0.267E+01
  14.245  0.320E+01  0.270E+01  0.320E+01  0.270E+01
  14.255  0.309E+01  0.275E+01  0.309E+01  0.275E+01
  14.265  0.296E+01  0.282E+01  0.295E+01  0.282E+01
  14.275  0.281E+01  0.290E+01  0.281E+01  0.289E+01
  14.285  0.266E+01  0.298E+01  0.266E+01  0.298E+01
  14.295  0.251E+01  0.306E+01  0.251E+01  0.306E+01
  14.305  0.237E+01  0.313E+01  0.237E+01  0.312E+01
  14.315  0.225E+01  0.318E+01  0.225E+01  0.317E+01
  14.325  0.215E+01  0.320E+01  0.215E+01  0.319E+01
  14.335  0.209E+01  0.319E+01  0.209E+01  0.318E+01
  14.345  0.206E+01  0.314E+01  0.206E+01  0.314E+01
  14.355  0.207E+01  0.307E+01  0.207E+01  0.306E+01
  14.365  0.212E+01  0.296E+01  0.212E+01  0.295E+01
  14.375  0.221E+01  0.282E+01  0.220E+01  0.282E+01
  14.385  0.232E+01  0.266E+01  0.232E+01  0.266E+01
  14.395  0.247E+01  0.249E+01  0.247E+01  0.249E+01
  14.405  0.264E+01  0.232E+01  0.263E+01  0.231E+01
  14.415  0.281E+01  0.215E+01  0.281E+01  0.214E+01
  14.425  0.299E+01  0.199E+01  0.299E+01  0.199E+01
  14.435  0.317E+01  0.186E+01  0.317E+01  0.186E+01
  14.445  0.333E+01  0.177E+01  0.332E+01  0.177E+01
  14.455  0.346E+01  0.171E+01  0.346E+01  0.171E+01
  14.465  0.356E+01  0.170E+01  0.356E+01  0.169E+01
  14.475  0.362E+01  0.172E+01  0.362E+01  0.172E+01
  14.485  0.364E+01  0.180E+01  0.364E+01  0.180E+01
  14.495  0.362E+01  0.191E+01  0.361E+01  0.191E+01
  14.505  0.354E+01  0.206E+01  0.354E+01  0.206E+01
  14.515  0.343E+01  0.224E+01  0.343E+01  0.224E+01
  14.525  0.327E+01  0.245E+01  0.327E+01  0.244E+01
  14.535  0.307E+01  0.266E+01  0.307E+01  0.266E+01
  14.545  0.285E+01  0.288E+01  0.285E+01  0.287E+01
  14.555  0.260E+01  0.308E+01  0.260E+01  0.308E+01
  14.565  0.234E+01  0.328E+01  0.233E+01  0.327E+01
  14.575  0.207E+01  0.344E+01  0.207E+01  0.344E+01
  14.585  0.180E+01  0.357E+01  0.180E+01  0.357E+01
  14.595  0.155E+01  0.366E+01  0.155E+01  0.365E+01
  14.605  0.132E+01  0.370E+01  0.132E+01  0.370E+01
  14.615  0.111E+01  0.369E+01  0.111E+01  0.369E+01
  14.625  0.946E+00  0.364E+01  0.945E+00  0.363E+01
  14.635  0.819E+00  0.353E+01  0.818E+00  0.353E+01
  14.645  0.738E+00  0.338E+01  0.737E+00  0.338E+01
  14.655  0.704E+00  0.319E+01  0.703E+00  0.319E+01
  14.665  0.719E+00  0.297E+01  0.718E+00  0.296E+01
  14.675  0.782E+00  0.272E+01  0.781E+00  0.271E+01
  14.685  0.892E+00  0.244E+01  0.891E+00  0.244E+01
  14.695  0.104E+01  0.217E+01  0.104E+01  0.216E+01
  14.705  0.124E+01  0.189E+01  0.124E+01  0.188E+01
  14.715  0.146E+01  0.162E+01  0.146E+01  0.162E+01
  14.725  0.172E+01  0.137E+01  0.172E+01  0.137E+01
  14.735  0.199E+01  0.115E+01  0.199E+01  0.115E+01
  14.745  0.228E+01  0.961E+00  0.228E+01  0.960E+00
  14.755  0.257E+01  0.817E+00  0.257E+01  0.816E+00
  14.765  0.286E+01  0.718E+00  0.286E+01  0.717E+00
  14.775  0.314E+01  0.669E+00  0.314E+01  0.669E+00
  14.785  0.340E+01  0.671E+00  0.340E+01  0.671E+00
  14.795  0.364E+01  0.725E+00  0.364E+01  0.724E+00
  14.805  0.385E+01  0.828E+00  0.385E+01  0.827E+00
  14.815  0.402E+01  0.978E+00  0.402E+01  0.977E+00
  14.825  0.416E+01  0.117E+01  0.415E+01  0.117E+01
  14.835  0.425E+01  0.140E+01  0.425E+01  0.140E+01
  14.845  0.430E+01  0.166E+01  0.430E+01  0.166E+01
  14.855  0.431E+01  0.194E+01  0.431E+01  0.194E+01
  14.865  0.429E+01  0.224E+01  0.428E+01  0.224E+01
  14.875  0.423E+01  0.254E+01  0.422E+01  0.254E+01
  14.885  0.414E+01  0.284E+01  0.413E+01  0.284E+01
  14.895  0.402E+01  0.313E+01  0.402E+01  0.313E+01
  14.905  0.389E+01  0.340E+01  0.389E+01  0.340E+01
  14.915  0.375E+01  0.364E+01  0.374E+01  0.364E+01
  14.925  0.360E+01  0.386E+01  0.359E+01  0.385E+01
  14.935  0.345E+01  0.403E+01  0.345E+01  0.403E+01
  14.945  0.331E+01  0.416E+01  0.331E+01  0.416E+01
  14.955  0.319E+01  0.425E+01  0.318E+01  0.425E+01
  14.965  0.308E+01  0.430E+01  0.308E+01  0.430E+01
  14.975  0.299E+01  0.431E+01  0.299E+01  0.430E+01
  14.985  0.293E+01  0.428E+01  0.293E+01  0.427E+01
  14.995  0.289E+01  0.421E+01  0.289E+01  0.420E+01
  15.005  0.288E+01  0.411E+01  0.288E+01  0.411E+01
  15.015  0.290E+01  0.399E+01  0.290E+01  0.399E+01
  15.025  0.294E+01  0.386E+01  0.294E+01  0.386E+01
  15.035  0.300E+01  0.372E+01  0.300E+01  0.371E+01
  15.045  0.308E+01  0.357E+01  0.307E+01  0.357E+01
  15.055  0.317E+01  0.343E+01  0.317E+01  0.342E+01
  15.065  0.327E+01  0.329E+01  0.327E+01  0.329E+01
  15.075  0.338E+01  0.318E+01  0.337E+01  0.317E+01
  15.085  0.348E+01  0.308E+01  0.348E+01  0.307E+01
  15.095  0.358E+01  0.300E+01  0.357E+01  0.300E+01
  15.105  0.366E+01  0.295E+01  0.366E+01  0.295E+01
  15.115  0.373E+01  0.293E+01  0.372E+01  0.293E+01
  15.125  0.377E+01  0.293E+01  0.377E+01  0.293E+01
  15.135  0.380E+01  0.296E+01  0.379E+01  0.296E+01
  15.145  0.379E+01  0.302E+01  0.379E+01  0.302E+01
  15.155  0.377E+01  0.310E+01  0.376E+01  0.309E+01
  15.165  0.372E+01  0.319E+01  0.371E+01  0.319E+01
  15.175  0.365E+01  0.330E+01  0.364E+01  0.329E+01
  15.185  0.356E+01  0.341E+01  0.355E+01  0.341E+01
  15.195  0.346E+01  0.353E+01  0.345E+01  0.353E+01
  15.205  0.335E+01  0.365E+01  0.334E+01  0.364E+01
  15.215  0.324E+01  0.376E+01  0.323E+01  0.375E+01
  15.225  0.313E+01  0.385E+01  0.312E+01  0.384E+01
  15.235  0.303E+01  0.392E+01  0.302E+01  0.392E+01
  15.245  0.293E+01  0.397E+01  0.293E+01  0.396E+01
  15.255  0.285E+01  0.399E+01  0.285E+01  0.399E+01
  15.265  0.279E+01  0.398E+01  0.278E+01  0.398E+01
  15.275  0.273E+01  0.395E+01  0.273E+01  0.394E+01
  15.285  0.269E+01  0.388E+01  0.268E+01  0.387E+01
  15.295  0.265E+01  0.379E+01  0.264E+01  0.378E+01
  15.305  0.261E+01  0.367E+01  0.261E+01  0.367E+01
  15.315  0.258E+01  0.354E+01  0.258E+01  0.354E+01
  15.325  0.255E+01  0.340E+01  0.254E+01  0.340E+01
  15.335  0.251E+01  0.325E+01  0.250E+01  0.325E+01
  15.345  0.246E+01  0.311E+01  0.246E+01  0.310E+01
  15.355  0.241E+01  0.297E+01  0.240E+01  0.296E+01
  15.365  0.235E+01  0.284E+01  0.234E+01  0.283E+01
  15.375  0.228E+01  0.273E+01  0.228E+01  0.272E+01
  15.385  0.221E+01  0.263E+01  0.221E+01  0.262E+01
  15.395  0.213E+01  0.255E+01  0.213E+01  0.254E+01
  15.405  0.206E+01  0.249E+01  0.205E+01  0.248E+01
  15.415  0.198E+01  0.244E+01  0.198E+01  0.244E+01
  15.425  0.191E+01  0.240E+01  0.191E+01  0.240E+01
  15.435  0.184E+01  0.238E+01  0.184E+01  0.237E+01
  15.445  0.177E+01  0.236E+01  0.177E+01  0.235E+01
  15.455  0.171E+01  0.234E+01  0.171E+01  0.233E+01
  15.465  0.166E+01  0.232E+01  0.166E+01  0.231E+01
  15.475  0.161E+01  0.229E+01  0.160E+01  0.228E+01
  15.485  0.156E+01  0.225E+01  0.156E+01  0.225E+01
  15.495  0.152E+01  0.221E+01  0.151E+01  0.221E+01
  15.505  0.148E+01  0.216E+01  0.147E+01  0.216E+01
  15.515  0.144E+01  0.211E+01  0.144E+01  0.210E+01
  15.525  0.141E+01  0.204E+01  0.141E+01  0.204E+01
  15.535  0.138E+01  0.198E+01  0.138E+01  0.197E+01
  15.545  0.136E+01  0.191E+01  0.136E+01  0.191E+01
  15.555  0.135E+01  0.184E+01  0.135E+01  0.184E+01
  15.565  0.135E+01  0.177E+01  0.135E+01  0.177E+01
  15.575  0.136E+01  0.170E+01  0.136E+01  0.170E+01
  15.585  0.139E+01  0.163E+01  0.138E+01  0.163E+01
  15.595  0.142E+01  0.157E+01  0.142E+01  0.157E+01
  15.605  0.147E+01  0.152E+01  0.147E+01  0.151E+01
  15.615  0.154E+01  0.146E+01  0.154E+01  0.146E+01
  15.625  0.161E+01  0.141E+01  0.161E+01  0.141E+01
  15.635  0.170E+01  0.137E+01  0.170E+01  0.137E+01
  15.645  0.179E+01  0.133E+01  0.179E+01  0.133E+01
  15.655  0.189E+01  0.130E+01  0.188E+01  0.129E+01
  15.665  0.198E+01  0.127E+01  0.198E+01  0.127E+01
  15.675  0.208E+01  0.126E+01  0.208E+01  0.125E+01
  15.685  0.217E+01  0.125E+01  0.217E+01  0.125E+01
  15.695  0.226E+01  0.126E+01  0.226E+01  0.126E+01
  15.705  0.234E+01  0.128E+01  0.234E+01  0.127E+01
  15.715  0.242E+01  0.131E+01  0.241E+01  0.131E+01
  15.725  0.248E+01  0.136E+01  0.248E+01  0.135E+01
  15.735  0.254E+01  0.142E+01  0.254E+01  0.141E+01
  15.745  0.260E+01  0.149E+01  0.260E+01  0.149E+01
  15.755  0.265E+01  0.157E+01  0.265E+01  0.157E+01
  15.765  0.271E+01  0.166E+01  0.271E+01  0.166E+01
  15.775  0.277E+01  0.176E+01  0.276E+01  0.176E+01
  15.785  0.283E+01  0.186E+01  0.282E+01  0.186E+01
  15.795  0.290E+01  0.197E+01  0.289E+01  0.196E+01
  15.805  0.298E+01  0.207E+01  0.298E+01  0.206E+01
  15.815  0.307E+01  0.216E+01  0.307E+01  0.216E+01
  15.825  0.317E+01  0.226E+01  0.317E+01  0.225E+01
  15.835  0.329E+01  0.234E+01  0.328E+01  0.234E+01
  15.845  0.341E+01  0.242E+01  0.341E+01  0.242E+01
  15.855  0.354E+01  0.250E+01  0.353E+01  0.249E+01
  15.865  0.367E+01  0.256E+01  0.367E+01  0.256E+01
  15.875  0.380E+01  0.263E+01  0.379E+01  0.263E+01
  15.885  0.392E+01  0.269E+01  0.391E+01  0.269E+01
  15.895  0.402E+01  0.276E+01  0.402E+01  0.275E+01
  15.905  0.411E+01  0.282E+01  0.410E+01  0.282E+01
  15.915  0.417E+01  0.289E+01  0.416E+01  0.289E+01
  15.925  0.420E+01  0.297E+01  0.419E+01  0.297E+01
  15.935  0.420E+01  0.306E+01  0.419E+01  0.306E+01
  15.945  0.416E+01  0.316E+01  0.415E+01  0.316E+01
  15.955  0.409E+01  0.327E+01  0.408E+01  0.327E+01
  15.965  0.398E+01  0.339E+01  0.397E+01  0.338E+01
  15.975  0.383E+01  0.351E+01  0.383E+01  0.351E+01
  15.985  0.366E+01  0.364E+01  0.365E+01  0.364E+01
  15.995  0.345E+01  0.377E+01  0.345E+01  0.377E+01
  16.005  0.323E+01  0.390E+01  0.323E+01  0.389E+01
  16.015  0.299E+01  0.401E+01  0.299E+01  0.401E+01
  16.025  0.275E+01  0.411E+01  0.274E+01  0.411E+01
  16.035  0.250E+01  0.419E+01  0.249E+01  0.419E+01
  16.045  0.225E+01  0.425E+01  0.225E+01  0.424E+01
  16.055  0.201E+01  0.427E+01  0.201E+01  0.426E+01
  16.065  0.179E+01  0.426E+01  0.179E+01  0.425E+01
  16.075  0.159E+01  0.421E+01  0.158E+01  0.420E+01
  16.085  0.141E+01  0.412E+01  0.141E+01  0.412E+01
  16.095  0.126E+01  0.400E+01  0.126E+01  0.399E+01
  16.105  0.114E+01  0.384E+01  0.114E+01  0.384E+01
  16.115  0.106E+01  0.365E+01  0.106E+01  0.365E+01
  16.125  0.102E+01  0.344E+01  0.102E+01  0.343E+01
  16.135  0.102E+01  0.320E+01  0.102E+01  0.319E+01
  16.145  0.106E+01  0.295E+01  0.106E+01  0.294E+01
  16.155  0.115E+01  0.268E+01  0.115E+01  0.268E+01
  16.165  0.128E+01  0.242E+01  0.128E+01  0.242E+01
  16.175  0.145E+01  0.216E+01  0.144E+01  0.216E+01
  16.185  0.165E+01  0.191E+01  0.165E+01  0.191E+01
  16.195  0.190E+01  0.168E+01  0.189E+01  0.168E+01
  16.205  0.216E+01  0.147E+01  0.216E+01  0.147E+01
  16.215  0.246E+01  0.129E+01  0.245E+01  0.129E+01
  16.225  0.276E+01  0.113E+01  0.276E+01  0.113E+01
  16.235  0.307E+01  0.102E+01  0.306E+01  0.101E+01
  16.245  0.337E+01  0.934E+00  0.337E+01  0.933E+00
  16.255  0.366E+01  0.892E+00  0.365E+01  0.891E+00
  16.265  0.392E+01  0.890E+00  0.392E+01  0.889E+00
  16.275  0.416E+01  0.931E+00  0.415E+01  0.930E+00
  16.285  0.435E+01  0.101E+01  0.435E+01  0.101E+01
  16.295  0.451E+01  0.114E+01  0.450E+01  0.114E+01
  16.305  0.461E+01  0.130E+01  0.461E+01  0.130E+01
  16.315  0.467E+01  0.151E+01  0.467E+01  0.150E+01
  16.325  0.469E+01  0.174E+01  0.468E+01  0.174E+01
  16.335  0.466E+01  0.201E+01  0.465E+01  0.201E+01
  16.345  0.460E+01  0.230E+01  0.459E+01  0.229E+01
  16.355  0.450E+01  0.260E+01  0.450E+01  0.259E+01
  16.365  0.438E+01  0.291E+01  0.438E+01  0.290E+01
  16.375  0.425E+01  0.322E+01  0.425E+01  0.321E+01
  16.385  0.412E+01  0.351E+01  0.411E+01  0.351E+01
  16.395  0.399E+01  0.379E+01  0.398E+01  0.379E+01
  16.405  0.386E+01  0.404E+01  0.386E+01  0.403E+01
  16.415  0.375E+01  0.425E+01  0.375E+01  0.425E+01
  16.425  0.366E+01  0.443E+01  0.366E+01  0.442E+01
  16.435  0.359E+01  0.456E+01  0.359E+01  0.455E+01
  16.445  0.354E+01  0.464E+01  0.354E+01  0.463E+01
  16.455  0.351E+01  0.468E+01  0.351E+01  0.467E+01
  16.465  0.350E+01  0.467E+01  0.350E+01  0.466E+01
  16.475  0.351E+01  0.462E+01  0.350E+01  0.462E+01
  16.485  0.352E+01  0.454E+01  0.352E+01  0.454E+01
  16.495  0.354E+01  0.444E+01  0.354E+01  0.443E+01
  16.505  0.356E+01  0.431E+01  0.356E+01  0.430E+01
  16.515  0.359E+01  0.417E+01  0.358E+01  0.417E+01
  16.525  0.361E+01  0.403E+01  0.360E+01  0.403E+01
  16.535  0.362E+01  0.390E+01  0.362E+01  0.390E+01
  16.545  0.364E+01  0.378E+01  0.363E+01  0.377E+01
  16.555  0.365E+01  0.367E+01  0.364E+01  0.367E+01
  16.565  0.366E+01  0.359E+01  0.366E+01  0.358E+01
  16.575  0.368E+01  0.353E+01  0.368E+01  0.352E+01
  16.585  0.371E+01  0.348E+01  0.370E+01  0.348E+01
  16.595  0.374E+01  0.346E+01  0.374E+01  0.346E+01
  16.605  0.379E+01  0.346E+01  0.379E+01  0.345E+01
  16.615  0.386E+01  0.347E+01  0.385E+01  0.346E+01
  16.625  0.393E+01  0.348E+01  0.393E+01  0.348E+01
  16.635  0.402E+01  0.351E+01  0.401E+01  0.350E+01
  16.645  0.411E+01  0.353E+01  0.411E+01  0.353E+01
  16.655  0.421E+01  0.355E+01  0.420E+01  0.355E+01
  16.665  0.429E+01  0.357E+01  0.429E+01  0.357E+01
  16.675  0.437E+01  0.359E+01  0.436E+01  0.359E+01
  16.685  0.442E+01  0.361E+01  0.442E+01  0.360E+01
  16.695  0.445E+01  0.362E+01  0.445E+01  0.362E+01
  16.705  0.445E+01  0.364E+01  0.445E+01  0.363E+01
  16.715  0.441E+01  0.366E+01  0.441E+01  0.366E+01
  16.725  0.433E+01  0.369E+01  0.433E+01  0.369E+01
  16.735  0.421E+01  0.374E+01  0.421E+01  0.373E+01
  16.745  0.406E+01  0.380E+01  0.405E+01  0.379E+01
  16.755  0.387E+01  0.387E+01  0.386E+01  0.387E+01
  16.765  0.365E+01  0.396E+01  0.365E+01  0.395E+01
  16.775  0.341E+01  0.405E+01  0.341E+01  0.405E+01
  16.785  0.315E+01  0.415E+01  0.315E+01  0.415E+01
  16.795  0.289E+01  0.425E+01  0.289E+01  0.425E+01
  16.805  0.262E+01  0.434E+01  0.262E+01  0.434E+01
  16.815  0.236E+01  0.442E+01  0.236E+01  0.441E+01
  16.825  0.211E+01  0.447E+01  0.211E+01  0.447E+01
  16.835  0.188E+01  0.450E+01  0.187E+01  0.449E+01
  16.845  0.166E+01  0.449E+01  0.165E+01  0.448E+01
  16.855  0.146E+01  0.444E+01  0.146E+01  0.443E+01
  16.865  0.128E+01  0.435E+01  0.128E+01  0.435E+01
  16.875  0.112E+01  0.422E+01  0.112E+01  0.422E+01
  16.885  0.988E+00  0.406E+01  0.987E+00  0.405E+01
  16.895  0.872E+00  0.386E+01  0.871E+00  0.385E+01
  16.905  0.775E+00  0.363E+01  0.774E+00  0.363E+01
  16.915  0.696E+00  0.338E+01  0.694E+00  0.338E+01
  16.925  0.632E+00  0.312E+01  0.631E+00  0.312E+01
  16.935  0.584E+00  0.285E+01  0.583E+00  0.285E+01
  16.945  0.549E+00  0.258E+01  0.548E+00  0.258E+01
  16.955  0.526E+00  0.232E+01  0.525E+00  0.232E+01
  16.965  0.514E+00  0.207E+01  0.513E+00  0.207E+01
  16.975  0.510E+00  0.183E+01  0.509E+00  0.183E+01
  16.985  0.513E+00  0.161E+01  0.512E+00  0.161E+01
  16.995  0.521E+00  0.141E+01  0.520E+00  0.141E+01
  17.005  0.532E+00  0.123E+01  0.531E+00  0.123E+01
  17.015  0.545E+00  0.107E+01  0.544E+00  0.107E+01
  17.025  0.557E+00  0.931E+00  0.557E+00  0.929E+00
  17.035  0.569E+00  0.811E+00  0.569E+00  0.809E+00
  17.045  0.581E+00  0.709E+00  0.580E+00  0.707E+00
  17.055  0.592E+00  0.625E+00  0.591E+00  0.624E+00
  17.065  0.603E+00  0.557E+00  0.603E+00  0.556E+00
  17.075  0.618E+00  0.506E+00  0.617E+00  0.505E+00
  17.085  0.637E+00  0.470E+00  0.636E+00  0.469E+00
  17.095  0.664E+00  0.447E+00  0.663E+00  0.446E+00
  17.105  0.702E+00  0.437E+00  0.701E+00  0.436E+00
  17.115  0.753E+00  0.438E+00  0.752E+00  0.437E+00
  17.125  0.820E+00  0.449E+00  0.819E+00  0.448E+00
  17.135  0.904E+00  0.468E+00  0.902E+00  0.468E+00
  17.145  0.101E+01  0.495E+00  0.100E+01  0.494E+00
  17.155  0.113E+01  0.527E+00  0.112E+01  0.526E+00
  17.165  0.126E+01  0.564E+00  0.126E+01  0.564E+00
  17.175  0.141E+01  0.606E+00  0.140E+01  0.605E+00
  17.185  0.156E+01  0.652E+00  0.156E+01  0.651E+00
  17.195  0.172E+01  0.702E+00  0.172E+01  0.701E+00
  17.205  0.188E+01  0.758E+00  0.187E+01  0.757E+00
  17.215  0.202E+01  0.821E+00  0.202E+01  0.819E+00
  17.225  0.216E+01  0.891E+00  0.215E+01  0.890E+00
  17.235  0.227E+01  0.971E+00  0.226E+01  0.969E+00
  17.245  0.236E+01  0.106E+01  0.235E+01  0.106E+01
  17.255  0.242E+01  0.116E+01  0.241E+01  0.116E+01
  17.265  0.245E+01  0.127E+01  0.244E+01  0.127E+01
  17.275  0.244E+01  0.139E+01  0.244E+01  0.139E+01
  17.285  0.241E+01  0.152E+01  0.240E+01  0.151E+01
  17.295  0.234E+01  0.165E+01  0.233E+01  0.165E+01
  17.305  0.224E+01  0.179E+01  0.223E+01  0.178E+01
  17.315  0.212E+01  0.192E+01  0.211E+01  0.191E+01
  17.325  0.197E+01  0.204E+01  0.196E+01  0.203E+01
  17.335  0.181E+01  0.215E+01  0.180E+01  0.214E+01
  17.345  0.164E+01  0.224E+01  0.163E+01  0.224E+01
  17.355  0.146E+01  0.232E+01  0.145E+01  0.231E+01
  17.365  0.127E+01  0.236E+01  0.127E+01  0.236E+01
  17.375  0.110E+01  0.238E+01  0.109E+01  0.238E+01
  17.385  0.927E+00  0.238E+01  0.924E+00  0.237E+01
  17.395  0.768E+00  0.234E+01  0.766E+00  0.233E+01
  17.405  0.622E+00  0.227E+01  0.621E+00  0.227E+01
  17.415  0.493E+00  0.218E+01  0.492E+00  0.218E+01
  17.425  0.381E+00  0.207E+01  0.380E+00  0.206E+01
  17.435  0.288E+00  0.194E+01  0.287E+00  0.193E+01
  17.445  0.213E+00  0.179E+01  0.213E+00  0.178E+01
  17.455  0.157E+00  0.163E+01  0.157E+00  0.163E+01
  17.465  0.119E+00  0.147E+01  0.119E+00  0.146E+01
  17.475  0.971E-01  0.130E+01  0.969E-01  0.130E+01
  17.485  0.900E-01  0.114E+01  0.898E-01  0.113E+01
  17.495  0.959E-01  0.981E+00  0.956E-01  0.978E+00
  17.505  0.113E+00  0.833E+00  0.112E+00  0.831E+00
  17.515  0.138E+00  0.698E+00  0.137E+00  0.697E+00
  17.525  0.169E+00  0.578E+00  0.169E+00  0.576E+00
  17.535  0.205E+00  0.472E+00  0.204E+00  0.471E+00
  17.545  0.242E+00  0.384E+00  0.241E+00  0.383E+00
  17.555  0.279E+00  0.313E+00  0.279E+00  0.312E+00
  17.565  0.315E+00  0.258E+00  0.314E+00  0.257E+00
  17.575  0.348E+00  0.219E+00  0.347E+00  0.219E+00
  17.585  0.377E+00  0.196E+00  0.376E+00  0.195E+00
  17.595  0.402E+00  0.186E+00  0.400E+00  0.185E+00
  17.605  0.422E+00  0.188E+00  0.420E+00  0.187E+00
  17.615  0.438E+00  0.200E+00  0.436E+00  0.199E+00
  17.625  0.450E+00  0.220E+00  0.448E+00  0.219E+00
  17.635  0.458E+00  0.246E+00  0.457E+00  0.245E+00
  17.645  0.465E+00  0.276E+00  0.463E+00  0.275E+00
  17.655  0.469E+00  0.309E+00  0.467E+00  0.308E+00
  17.665  0.472E+00  0.342E+00  0.470E+00  0.340E+00
  17.675  0.475E+00  0.374E+00  0.473E+00  0.373E+00
  17.685  0.476E+00  0.404E+00  0.474E+00  0.403E+00
  17.695  0.477E+00  0.432E+00  0.475E+00  0.430E+00
  17.705  0.477E+00  0.456E+00  0.475E+00  0.454E+00
  17.715  0.476E+00  0.477E+00  0.474E+00  0.475E+00
  17.725  0.472E+00  0.494E+00  0.470E+00  0.492E+00
  17.735  0.466E+00  0.508E+00  0.463E+00  0.506E+00
  17.745  0.456E+00  0.519E+00  0.454E+00  0.517E+00
  17.755  0.442E+00  0.526E+00  0.440E+00  0.524E+00
  17.765  0.424E+00  0.530E+00  0.422E+00  0.528E+00
  17.775  0.401E+00  0.532E+00  0.399E+00  0.529E+00
  17.785  0.374E+00  0.530E+00  0.372E+00  0.528E+00
  17.795  0.343E+00  0.525E+00  0.341E+00  0.523E+00
  17.805  0.308E+00  0.516E+00  0.306E+00  0.514E+00
  17.815  0.271E+00  0.504E+00  0.269E+00  0.502E+00
  17.825  0.231E+00  0.488E+00  0.230E+00  0.486E+00
  17.835  0.191E+00  0.468E+00  0.190E+00  0.465E+00
  17.845  0.151E+00  0.443E+00  0.151E+00  0.441E+00
  17.855  0.113E+00  0.415E+00  0.112E+00  0.413E+00
  17.865  0.763E-01  0.383E+00  0.759E-01  0.381E+00
  17.875  0.428E-01  0.347E+00  0.426E-01  0.346E+00
  17.885  0.132E-01  0.310E+00  0.131E-01  0.308E+00
  17.895 -0.119E-01  0.270E+00 -0.119E-01  0.269E+00
  17.905 -0.318E-01  0.230E+00 -0.316E-01  0.228E+00
  17.915 -0.458E-01  0.189E+00 -0.456E-01  0.188E+00
  17.925 -0.534E-01  0.149E+00 -0.531E-01  0.149E+00
  17.935 -0.540E-01  0.111E+00 -0.537E-01  0.111E+00
  17.945 -0.471E-01  0.754E-01 -0.469E-01  0.750E-01
  17.955 -0.322E-01  0.426E-01 -0.321E-01  0.424E-01
  17.965 -0.896E-02  0.134E-01 -0.892E-02  0.133E-01
  17.975  0.229E-01 -0.118E-01  0.228E-01 -0.118E-01
  17.985  0.634E-01 -0.327E-01  0.631E-01 -0.326E-01
  17.995  0.112E+00 -0.488E-01  0.112E+00 -0.486E-01
  18.005  0.169E+00 -0.598E-01  0.168E+00 -0.596E-01
  18.015  0.233E+00 -0.653E-01  0.232E+00 -0.650E-01
  18.025  0.302E+00 -0.649E-01  0.300E+00 -0.646E-01
  18.035  0.375E+00 -0.580E-01  0.373E+00 -0.577E-01
  18.045  0.449E+00 -0.442E-01  0.447E+00 -0.440E-01
  18.055  0.523E+00 -0.229E-01  0.521E+00 -0.228E-01
  18.065  0.593E+00  0.611E-02  0.590E+00  0.609E-02
  18.075  0.657E+00  0.433E-01  0.654E+00  0.431E-01
  18.085  0.712E+00  0.885E-01  0.709E+00  0.881E-01
  18.095  0.757E+00  0.142E+00  0.753E+00  0.141E+00
  18.105  0.788E+00  0.202E+00  0.785E+00  0.201E+00
  18.115  0.806E+00  0.269E+00  0.802E+00  0.268E+00
  18.125  0.810E+00  0.340E+00  0.806E+00  0.339E+00
  18.135  0.799E+00  0.414E+00  0.796E+00  0.413E+00
  18.145  0.777E+00  0.489E+00  0.773E+00  0.487E+00
  18.155  0.744E+00  0.562E+00  0.740E+00  0.560E+00
  18.165  0.703E+00  0.631E+00  0.700E+00  0.628E+00
  18.175  0.658E+00  0.692E+00  0.655E+00  0.688E+00
  18.185  0.613E+00  0.743E+00  0.610E+00  0.739E+00
  18.195  0.571E+00  0.782E+00  0.568E+00  0.778E+00
  18.205  0.536E+00  0.807E+00  0.533E+00  0.803E+00
  18.215  0.511E+00  0.817E+00  0.509E+00  0.814E+00
  18.225  0.499E+00  0.813E+00  0.497E+00  0.809E+00
  18.235  0.502E+00  0.794E+00  0.500E+00  0.790E+00
  18.245  0.521E+00  0.762E+00  0.519E+00  0.758E+00
  18.255  0.555E+00  0.719E+00  0.553E+00  0.716E+00
  18.265  0.603E+00  0.669E+00  0.601E+00  0.665E+00
  18.275  0.663E+00  0.614E+00  0.661E+00  0.611E+00
  18.285  0.733E+00  0.558E+00  0.731E+00  0.556E+00
  18.295  0.808E+00  0.506E+00  0.805E+00  0.504E+00
  18.305  0.884E+00  0.461E+00  0.882E+00  0.459E+00
  18.315  0.958E+00  0.427E+00  0.956E+00  0.425E+00
  18.325  0.103E+01  0.406E+00  0.102E+01  0.405E+00
  18.335  0.108E+01  0.401E+00  0.108E+01  0.400E+00
  18.345  0.113E+01  0.413E+00  0.112E+01  0.412E+00
  18.355  0.115E+01  0.442E+00  0.115E+01  0.441E+00
  18.365  0.116E+01  0.487E+00  0.116E+01  0.486E+00
  18.375  0.116E+01  0.547E+00  0.115E+01  0.546E+00
  18.385  0.113E+01  0.619E+00  0.113E+01  0.617E+00
  18.395  0.109E+01  0.700E+00  0.109E+01  0.698E+00
  18.405  0.104E+01  0.786E+00  0.104E+01  0.783E+00
  18.415  0.976E+00  0.872E+00  0.973E+00  0.869E+00
  18.425  0.906E+00  0.955E+00  0.903E+00  0.952E+00
  18.435  0.832E+00  0.103E+01  0.829E+00  0.103E+01
  18.445  0.757E+00  0.109E+01  0.755E+00  0.109E+01
  18.455  0.686E+00  0.114E+01  0.684E+00  0.114E+01
  18.465  0.619E+00  0.118E+01  0.617E+00  0.118E+01
  18.475  0.560E+00  0.119E+01  0.558E+00  0.119E+01
  18.485  0.509E+00  0.119E+01  0.507E+00  0.119E+01
  18.495  0.467E+00  0.117E+01  0.465E+00  0.117E+01
  18.505  0.433E+00  0.114E+01  0.431E+00  0.113E+01
  18.515  0.408E+00  0.109E+01  0.406E+00  0.108E+01
  18.525  0.391E+00  0.103E+01  0.389E+00  0.102E+01
  18.535  0.379E+00  0.957E+00  0.378E+00  0.953E+00
  18.545  0.374E+00  0.882E+00  0.372E+00  0.879E+00
  18.555  0.372E+00  0.806E+00  0.370E+00  0.803E+00
  18.565  0.374E+00  0.730E+00  0.372E+00  0.728E+00
  18.575  0.380E+00  0.659E+00  0.378E+00  0.656E+00
  18.585  0.389E+00  0.594E+00  0.387E+00  0.591E+00
  18.595  0.403E+00  0.536E+00  0.401E+00  0.534E+00
  18.605  0.421E+00  0.487E+00  0.419E+00  0.485E+00
  18.615  0.446E+00  0.448E+00  0.444E+00  0.446E+00
  18.625  0.477E+00  0.417E+00  0.475E+00  0.416E+00
  18.635  0.517E+00  0.397E+00  0.515E+00  0.395E+00
  18.645  0.566E+00  0.385E+00  0.564E+00  0.383E+00
  18.655  0.624E+00  0.381E+00  0.621E+00  0.380E+00
  18.665  0.690E+00  0.386E+00  0.687E+00  0.384E+00
  18.675  0.763E+00  0.397E+00  0.760E+00  0.396E+00
  18.685  0.841E+00  0.417E+00  0.838E+00  0.415E+00
  18.695  0.922E+00  0.443E+00  0.918E+00  0.442E+00
  18.705  0.100E+01  0.477E+00  0.998E+00  0.475E+00
  18.715  0.108E+01  0.518E+00  0.107E+01  0.516E+00
  18.725  0.115E+01  0.566E+00  0.114E+01  0.564E+00
  18.735  0.120E+01  0.622E+00  0.120E+01  0.619E+00
  18.745  0.124E+01  0.683E+00  0.124E+01  0.681E+00
  18.755  0.127E+01  0.751E+00  0.126E+01  0.747E+00
  18.765  0.127E+01  0.822E+00  0.126E+01  0.818E+00
  18.775  0.125E+01  0.895E+00  0.125E+01  0.891E+00
  18.785  0.122E+01  0.968E+00  0.121E+01  0.963E+00
  18.795  0.116E+01  0.104E+01  0.116E+01  0.103E+01
  18.805  0.109E+01  0.110E+01  0.108E+01  0.110E+01
  18.815  0.100E+01  0.116E+01  0.996E+00  0.115E+01
  18.825  0.901E+00  0.120E+01  0.898E+00  0.119E+01
  18.835  0.795E+00  0.123E+01  0.792E+00  0.122E+01
  18.845  0.686E+00  0.124E+01  0.683E+00  0.123E+01
  18.855  0.576E+00  0.123E+01  0.573E+00  0.123E+01
  18.865  0.469E+00  0.121E+01  0.467E+00  0.121E+01
  18.875  0.369E+00  0.117E+01  0.367E+00  0.116E+01
  18.885  0.277E+00  0.111E+01  0.275E+00  0.111E+01
  18.895  0.194E+00  0.104E+01  0.194E+00  0.103E+01
  18.905  0.123E+00  0.953E+00  0.123E+00  0.949E+00
  18.915  0.633E-01  0.858E+00  0.631E-01  0.854E+00
  18.925  0.145E-01  0.757E+00  0.145E-01  0.754E+00
  18.935 -0.238E-01  0.653E+00 -0.237E-01  0.650E+00
  18.945 -0.525E-01  0.549E+00 -0.522E-01  0.547E+00
  18.955 -0.727E-01  0.448E+00 -0.723E-01  0.446E+00
  18.965 -0.855E-01  0.353E+00 -0.850E-01  0.352E+00
  18.975 -0.920E-01  0.266E+00 -0.916E-01  0.265E+00
  18.985 -0.934E-01  0.188E+00 -0.930E-01  0.187E+00
  18.995 -0.905E-01  0.120E+00 -0.900E-01  0.120E+00
  19.005 -0.838E-01  0.624E-01 -0.834E-01  0.623E-01
  19.015 -0.739E-01  0.153E-01 -0.735E-01  0.153E-01
  19.025 -0.609E-01 -0.219E-01 -0.607E-01 -0.218E-01
  19.035 -0.451E-01 -0.499E-01 -0.449E-01 -0.497E-01
  19.045 -0.263E-01 -0.696E-01 -0.262E-01 -0.693E-01
  19.055 -0.456E-02 -0.819E-01 -0.461E-02 -0.815E-01
  19.065  0.202E-01 -0.877E-01  0.200E-01 -0.872E-01
  19.075  0.478E-01 -0.878E-01  0.474E-01 -0.874E-01
  19.085  0.782E-01 -0.829E-01  0.776E-01 -0.825E-01
  19.095  0.111E+00 -0.735E-01  0.110E+00 -0.732E-01
  19.105  0.145E+00 -0.601E-01  0.144E+00 -0.598E-01
  19.115  0.181E+00 -0.428E-01  0.180E+00 -0.427E-01
  19.125  0.216E+00 -0.219E-01  0.215E+00 -0.219E-01
  19.135  0.251E+00  0.249E-02  0.249E+00  0.237E-02
  19.145  0.283E+00  0.302E-01  0.281E+00  0.299E-01
  19.155  0.312E+00  0.610E-01  0.310E+00  0.605E-01
  19.165  0.336E+00  0.944E-01  0.334E+00  0.937E-01
  19.175  0.355E+00  0.130E+00  0.353E+00  0.129E+00
  19.185  0.368E+00  0.167E+00  0.366E+00  0.166E+00
  19.195  0.375E+00  0.204E+00  0.373E+00  0.202E+00
  19.205  0.377E+00  0.240E+00  0.374E+00  0.239E+00
  19.215  0.373E+00  0.275E+00  0.371E+00  0.273E+00
  19.225  0.366E+00  0.306E+00  0.363E+00  0.304E+00
  19.235  0.356E+00  0.333E+00  0.354E+00  0.331E+00
  19.245  0.346E+00  0.354E+00  0.344E+00  0.352E+00
  19.255  0.338E+00  0.369E+00  0.335E+00  0.367E+00
  19.265  0.334E+00  0.378E+00  0.331E+00  0.375E+00
  19.275  0.336E+00  0.379E+00  0.334E+00  0.377E+00
  19.285  0.346E+00  0.375E+00  0.344E+00  0.372E+00
  19.295  0.367E+00  0.364E+00  0.365E+00  0.362E+00
  19.305  0.398E+00  0.350E+00  0.396E+00  0.347E+00
  19.315  0.442E+00  0.333E+00  0.439E+00  0.331E+00
  19.325  0.497E+00  0.315E+00  0.494E+00  0.313E+00
  19.335  0.562E+00  0.300E+00  0.559E+00  0.298E+00
  19.345  0.638E+00  0.289E+00  0.634E+00  0.287E+00
  19.355  0.720E+00  0.285E+00  0.716E+00  0.283E+00
  19.365  0.807E+00  0.290E+00  0.803E+00  0.288E+00
  19.375  0.896E+00  0.305E+00  0.891E+00  0.303E+00
  19.385  0.983E+00  0.333E+00  0.978E+00  0.331E+00
  19.395  0.107E+01  0.373E+00  0.106E+01  0.371E+00
  19.405  0.114E+01  0.427E+00  0.113E+01  0.424E+00
  19.415  0.120E+01  0.493E+00  0.119E+01  0.490E+00
  19.425  0.125E+01  0.570E+00  0.124E+01  0.567E+00
  19.435  0.128E+01  0.656E+00  0.127E+01  0.653E+00
  19.445  0.129E+01  0.749E+00  0.129E+01  0.745E+00
  19.455  0.129E+01  0.845E+00  0.128E+01  0.841E+00
  19.465  0.127E+01  0.942E+00  0.126E+01  0.937E+00
  19.475  0.122E+01  0.103E+01  0.122E+01  0.103E+01
  19.485  0.117E+01  0.112E+01  0.116E+01  0.111E+01
  19.495  0.109E+01  0.119E+01  0.109E+01  0.119E+01
  19.505  0.101E+01  0.125E+01  0.101E+01  0.125E+01
  19.515  0.919E+00  0.130E+01  0.914E+00  0.129E+01
  19.525  0.822E+00  0.132E+01  0.817E+00  0.132E+01
  19.535  0.722E+00  0.133E+01  0.718E+00  0.132E+01
  19.545  0.625E+00  0.131E+01  0.621E+00  0.131E+01
  19.555  0.532E+00  0.128E+01  0.529E+00  0.127E+01
  19.565  0.446E+00  0.123E+01  0.444E+00  0.122E+01
  19.575  0.371E+00  0.116E+01  0.369E+00  0.115E+01
  19.585  0.307E+00  0.107E+01  0.305E+00  0.107E+01
  19.595  0.255E+00  0.977E+00  0.254E+00  0.971E+00
  19.605  0.217E+00  0.874E+00  0.215E+00  0.869E+00
  19.615  0.191E+00  0.768E+00  0.190E+00  0.764E+00
  19.625  0.178E+00  0.661E+00  0.177E+00  0.658E+00
  19.635  0.175E+00  0.559E+00  0.174E+00  0.556E+00
  19.645  0.182E+00  0.463E+00  0.181E+00  0.460E+00
  19.655  0.195E+00  0.376E+00  0.195E+00  0.374E+00
  19.665  0.215E+00  0.302E+00  0.214E+00  0.300E+00
  19.675  0.237E+00  0.240E+00  0.236E+00  0.239E+00
  19.685  0.260E+00  0.193E+00  0.259E+00  0.192E+00
  19.695  0.284E+00  0.159E+00  0.283E+00  0.159E+00
  19.705  0.306E+00  0.140E+00  0.305E+00  0.139E+00
  19.715  0.327E+00  0.133E+00  0.326E+00  0.133E+00
  19.725  0.346E+00  0.138E+00  0.345E+00  0.137E+00
  19.735  0.364E+00  0.152E+00  0.362E+00  0.152E+00
  19.745  0.381E+00  0.174E+00  0.379E+00  0.173E+00
  19.755  0.400E+00  0.201E+00  0.398E+00  0.200E+00
  19.765  0.420E+00  0.232E+00  0.418E+00  0.231E+00
  19.775  0.445E+00  0.265E+00  0.442E+00  0.264E+00
  19.785  0.475E+00  0.299E+00  0.472E+00  0.297E+00
  19.795  0.510E+00  0.331E+00  0.507E+00  0.330E+00
  19.805  0.552E+00  0.363E+00  0.549E+00  0.361E+00
  19.815  0.601E+00  0.393E+00  0.597E+00  0.391E+00
  19.825  0.655E+00  0.423E+00  0.650E+00  0.420E+00
  19.835  0.713E+00  0.451E+00  0.708E+00  0.449E+00
  19.845  0.772E+00  0.481E+00  0.767E+00  0.478E+00
  19.855  0.831E+00  0.511E+00  0.825E+00  0.508E+00
  19.865  0.887E+00  0.544E+00  0.880E+00  0.540E+00
  19.875  0.936E+00  0.579E+00  0.929E+00  0.575E+00
  19.885  0.975E+00  0.618E+00  0.968E+00  0.614E+00
  19.895  0.100E+01  0.660E+00  0.995E+00  0.655E+00
  19.905  0.102E+01  0.705E+00  0.101E+01  0.700E+00
  19.915  0.102E+01  0.751E+00  0.101E+01  0.746E+00
  19.925  0.100E+01  0.798E+00  0.996E+00  0.792E+00
  19.935  0.975E+00  0.843E+00  0.968E+00  0.837E+00
  19.945  0.936E+00  0.885E+00  0.929E+00  0.879E+00
  19.955  0.888E+00  0.921E+00  0.882E+00  0.915E+00
  19.965  0.835E+00  0.950E+00  0.829E+00  0.943E+00
  19.975  0.779E+00  0.969E+00  0.774E+00  0.963E+00
  19.985  0.725E+00  0.978E+00  0.720E+00  0.972E+00
  19.995  0.677E+00  0.976E+00  0.672E+00  0.970E+00
  20.005  0.637E+00  0.964E+00  0.632E+00  0.957E+00
  20.015  0.607E+00  0.941E+00  0.603E+00  0.935E+00
  20.025  0.590E+00  0.911E+00  0.585E+00  0.905E+00
  20.035  0.585E+00  0.874E+00  0.580E+00  0.869E+00
  20.045  0.592E+00  0.834E+00  0.587E+00  0.829E+00
  20.055  0.610E+00  0.794E+00  0.605E+00  0.789E+00
  20.065  0.636E+00  0.757E+00  0.631E+00  0.752E+00
  20.075  0.667E+00  0.724E+00  0.662E+00  0.719E+00
  20.085  0.700E+00  0.699E+00  0.695E+00  0.694E+00
  20.095  0.732E+00  0.682E+00  0.726E+00  0.678E+00
  20.105  0.760E+00  0.675E+00  0.753E+00  0.670E+00
  20.115  0.779E+00  0.677E+00  0.773E+00  0.673E+00
  20.125  0.789E+00  0.688E+00  0.783E+00  0.683E+00
  20.135  0.787E+00  0.706E+00  0.781E+00  0.700E+00
  20.145  0.773E+00  0.727E+00  0.767E+00  0.722E+00
  20.155  0.747E+00  0.751E+00  0.741E+00  0.745E+00
  20.165  0.710E+00  0.772E+00  0.704E+00  0.766E+00
  20.175  0.664E+00  0.790E+00  0.658E+00  0.783E+00
  20.185  0.610E+00  0.800E+00  0.605E+00  0.793E+00
  20.195  0.553E+00  0.801E+00  0.549E+00  0.795E+00
  20.205  0.495E+00  0.792E+00  0.491E+00  0.785E+00
  20.215  0.439E+00  0.772E+00  0.435E+00  0.765E+00
  20.225  0.387E+00  0.740E+00  0.384E+00  0.734E+00
  20.235  0.342E+00  0.699E+00  0.339E+00  0.693E+00
  20.245  0.306E+00  0.649E+00  0.303E+00  0.643E+00
  20.255  0.280E+00  0.593E+00  0.277E+00  0.588E+00
  20.265  0.263E+00  0.534E+00  0.261E+00  0.530E+00
  20.275  0.257E+00  0.474E+00  0.255E+00  0.470E+00
  20.285  0.260E+00  0.417E+00  0.258E+00  0.414E+00
  20.295  0.270E+00  0.365E+00  0.268E+00  0.362E+00
  20.305  0.286E+00  0.320E+00  0.284E+00  0.317E+00
  20.315  0.306E+00  0.284E+00  0.303E+00  0.282E+00
  20.325  0.326E+00  0.258E+00  0.324E+00  0.256E+00
  20.335  0.346E+00  0.242E+00  0.343E+00  0.240E+00
  20.345  0.362E+00  0.237E+00  0.360E+00  0.235E+00
  20.355  0.374E+00  0.241E+00  0.371E+00  0.239E+00
  20.365  0.380E+00  0.253E+00  0.377E+00  0.251E+00
  20.375  0.379E+00  0.270E+00  0.376E+00  0.268E+00
  20.385  0.370E+00  0.292E+00  0.368E+00  0.290E+00
  20.395  0.355E+00  0.315E+00  0.352E+00  0.312E+00
  20.405  0.333E+00  0.337E+00  0.330E+00  0.335E+00
  20.415  0.306E+00  0.356E+00  0.304E+00  0.354E+00
  20.425  0.275E+00  0.371E+00  0.273E+00  0.369E+00
  20.435  0.241E+00  0.380E+00  0.240E+00  0.377E+00
  20.445  0.207E+00  0.382E+00  0.206E+00  0.379E+00
  20.455  0.175E+00  0.376E+00  0.173E+00  0.373E+00
  20.465  0.145E+00  0.363E+00  0.144E+00  0.360E+00
  20.475  0.120E+00  0.343E+00  0.119E+00  0.341E+00
  20.485  0.100E+00  0.317E+00  0.993E-01  0.315E+00
  20.495  0.871E-01  0.287E+00  0.864E-01  0.285E+00
  20.505  0.813E-01  0.254E+00  0.807E-01  0.252E+00
  20.515  0.831E-01  0.220E+00  0.824E-01  0.218E+00
  20.525  0.920E-01  0.186E+00  0.913E-01  0.185E+00
  20.535  0.108E+00  0.155E+00  0.107E+00  0.154E+00
  20.545  0.129E+00  0.128E+00  0.128E+00  0.127E+00
  20.555  0.155E+00  0.106E+00  0.154E+00  0.105E+00
  20.565  0.185E+00  0.903E-01  0.183E+00  0.896E-01
  20.575  0.216E+00  0.819E-01  0.214E+00  0.813E-01
  20.585  0.248E+00  0.811E-01  0.246E+00  0.805E-01
  20.595  0.278E+00  0.878E-01  0.276E+00  0.871E-01
  20.605  0.307E+00  0.102E+00  0.304E+00  0.101E+00
  20.615  0.331E+00  0.122E+00  0.328E+00  0.121E+00
  20.625  0.352E+00  0.148E+00  0.349E+00  0.146E+00
  20.635  0.369E+00  0.178E+00  0.365E+00  0.176E+00
  20.645  0.381E+00  0.210E+00  0.378E+00  0.208E+00
  20.655  0.391E+00  0.244E+00  0.387E+00  0.242E+00
  20.665  0.398E+00  0.278E+00  0.394E+00  0.275E+00
  20.675  0.404E+00  0.310E+00  0.400E+00  0.307E+00
  20.685  0.411E+00  0.339E+00  0.407E+00  0.336E+00
  20.695  0.421E+00  0.365E+00  0.416E+00  0.362E+00
  20.705  0.435E+00  0.387E+00  0.430E+00  0.383E+00
  20.715  0.455E+00  0.405E+00  0.450E+00  0.401E+00
  20.725  0.483E+00  0.418E+00  0.478E+00  0.414E+00
  20.735  0.520E+00  0.429E+00  0.514E+00  0.424E+00
  20.745  0.566E+00  0.437E+00  0.560E+00  0.432E+00
  20.755  0.621E+00  0.444E+00  0.614E+00  0.440E+00
  20.765  0.685E+00  0.453E+00  0.678E+00  0.448E+00
  20.775  0.757E+00  0.464E+00  0.749E+00  0.459E+00
  20.785  0.836E+00  0.479E+00  0.827E+00  0.474E+00
  20.795  0.918E+00  0.500E+00  0.909E+00  0.495E+00
  20.805  0.100E+01  0.529E+00  0.993E+00  0.523E+00
  20.815  0.109E+01  0.565E+00  0.108E+01  0.559E+00
  20.825  0.117E+01  0.611E+00  0.116E+01  0.604E+00
  20.835  0.124E+01  0.665E+00  0.123E+01  0.657E+00
  20.845  0.131E+01  0.727E+00  0.130E+01  0.720E+00
  20.855  0.137E+01  0.798E+00  0.136E+01  0.789E+00
  20.865  0.142E+01  0.874E+00  0.140E+01  0.865E+00
  20.875  0.145E+01  0.954E+00  0.144E+01  0.944E+00
  20.885  0.147E+01  0.104E+01  0.145E+01  0.103E+01
  20.895  0.147E+01  0.112E+01  0.146E+01  0.111E+01
  20.905  0.146E+01  0.120E+01  0.144E+01  0.119E+01
  20.915  0.143E+01  0.127E+01  0.141E+01  0.126E+01
  20.925  0.138E+01  0.134E+01  0.137E+01  0.132E+01
  20.935  0.132E+01  0.139E+01  0.131E+01  0.138E+01
  20.945  0.125E+01  0.143E+01  0.124E+01  0.142E+01
  20.955  0.117E+01  0.146E+01  0.116E+01  0.144E+01
  20.965  0.108E+01  0.147E+01  0.107E+01  0.146E+01
  20.975  0.981E+00  0.146E+01  0.971E+00  0.145E+01
  20.985  0.878E+00  0.144E+01  0.869E+00  0.143E+01
  20.995  0.773E+00  0.140E+01  0.765E+00  0.139E+01
  21.005  0.668E+00  0.135E+01  0.662E+00  0.134E+01
  21.015  0.566E+00  0.128E+01  0.560E+00  0.127E+01
  21.025  0.468E+00  0.120E+01  0.463E+00  0.119E+01
  21.035  0.376E+00  0.111E+01  0.373E+00  0.110E+01
  21.045  0.292E+00  0.101E+01  0.290E+00  0.998E+00
  21.055  0.217E+00  0.902E+00  0.215E+00  0.893E+00
  21.065  0.152E+00  0.794E+00  0.150E+00  0.786E+00
  21.075  0.959E-01  0.685E+00  0.949E-01  0.679E+00
  21.085  0.497E-01  0.579E+00  0.492E-01  0.574E+00
  21.095  0.128E-01  0.478E+00  0.126E-01  0.473E+00
  21.105 -0.156E-01  0.383E+00 -0.154E-01  0.380E+00
  21.115 -0.362E-01  0.297E+00 -0.359E-01  0.294E+00
  21.125 -0.501E-01  0.220E+00 -0.496E-01  0.217E+00
  21.135 -0.583E-01  0.152E+00 -0.578E-01  0.151E+00
  21.145 -0.620E-01  0.950E-01 -0.614E-01  0.939E-01
  21.155 -0.620E-01  0.479E-01 -0.614E-01  0.473E-01
  21.165 -0.595E-01  0.104E-01 -0.589E-01  0.102E-01
  21.175 -0.552E-01 -0.182E-01 -0.547E-01 -0.181E-01
  21.185 -0.498E-01 -0.389E-01 -0.493E-01 -0.385E-01
  21.195 -0.440E-01 -0.526E-01 -0.435E-01 -0.521E-01
  21.205 -0.381E-01 -0.606E-01 -0.377E-01 -0.600E-01
  21.215 -0.325E-01 -0.639E-01 -0.322E-01 -0.633E-01
  21.225 -0.274E-01 -0.637E-01 -0.272E-01 -0.631E-01
  21.235 -0.231E-01 -0.608E-01 -0.229E-01 -0.602E-01
  21.245 -0.196E-01 -0.562E-01 -0.194E-01 -0.557E-01
  21.255 -0.169E-01 -0.506E-01 -0.167E-01 -0.501E-01
  21.265 -0.150E-01 -0.445E-01 -0.149E-01 -0.441E-01
  21.275 -0.140E-01 -0.384E-01 -0.139E-01 -0.381E-01
  21.285 -0.137E-01 -0.327E-01 -0.136E-01 -0.324E-01
  21.295 -0.142E-01 -0.276E-01 -0.140E-01 -0.273E-01
  21.305 -0.152E-01 -0.232E-01 -0.151E-01 -0.230E-01
  21.315 -0.168E-01 -0.196E-01 -0.166E-01 -0.194E-01
  21.325 -0.188E-01 -0.169E-01 -0.186E-01 -0.167E-01
  21.335 -0.211E-01 -0.151E-01 -0.208E-01 -0.149E-01
  21.345 -0.234E-01 -0.140E-01 -0.231E-01 -0.139E-01
  21.355 -0.254E-01 -0.138E-01 -0.251E-01 -0.136E-01
  21.365 -0.269E-01 -0.142E-01 -0.266E-01 -0.141E-01
  21.375 -0.275E-01 -0.154E-01 -0.271E-01 -0.152E-01
  21.385 -0.267E-01 -0.170E-01 -0.264E-01 -0.168E-01
  21.395 -0.241E-01 -0.191E-01 -0.238E-01 -0.189E-01
  21.405 -0.192E-01 -0.215E-01 -0.189E-01 -0.212E-01
  21.415 -0.114E-01 -0.239E-01 -0.112E-01 -0.236E-01
  21.425 -0.251E-03 -0.262E-01 -0.205E-03 -0.258E-01
  21.435  0.147E-01 -0.279E-01  0.145E-01 -0.275E-01
  21.445  0.337E-01 -0.287E-01  0.333E-01 -0.283E-01
  21.455  0.571E-01 -0.282E-01  0.564E-01 -0.278E-01
  21.465  0.848E-01 -0.258E-01  0.839E-01 -0.255E-01
  21.475  0.117E+00 -0.211E-01  0.116E+00 -0.208E-01
  21.485  0.153E+00 -0.135E-01  0.151E+00 -0.133E-01
  21.495  0.192E+00 -0.245E-02  0.190E+00 -0.237E-02
  21.505  0.234E+00  0.125E-01  0.231E+00  0.124E-01
  21.515  0.277E+00  0.317E-01  0.274E+00  0.314E-01
  21.525  0.321E+00  0.556E-01  0.317E+00  0.550E-01
  21.535  0.363E+00  0.840E-01  0.359E+00  0.831E-01
  21.545  0.404E+00  0.117E+00  0.399E+00  0.116E+00
  21.555  0.441E+00  0.154E+00  0.435E+00  0.152E+00
  21.565  0.473E+00  0.195E+00  0.467E+00  0.193E+00
  21.575  0.499E+00  0.239E+00  0.492E+00  0.236E+00
  21.585  0.518E+00  0.284E+00  0.511E+00  0.281E+00
  21.595  0.529E+00  0.331E+00  0.522E+00  0.327E+00
  21.605  0.533E+00  0.376E+00  0.526E+00  0.371E+00
  21.615  0.528E+00  0.419E+00  0.521E+00  0.414E+00
  21.625  0.515E+00  0.458E+00  0.508E+00  0.452E+00
  21.635  0.495E+00  0.492E+00  0.489E+00  0.486E+00
  21.645  0.469E+00  0.520E+00  0.462E+00  0.514E+00
  21.655  0.437E+00  0.541E+00  0.431E+00  0.534E+00
  21.665  0.401E+00  0.553E+00  0.395E+00  0.546E+00
  21.675  0.362E+00  0.556E+00  0.357E+00  0.549E+00
  21.685  0.322E+00  0.551E+00  0.318E+00  0.544E+00
  21.695  0.284E+00  0.537E+00  0.280E+00  0.530E+00
  21.705  0.248E+00  0.516E+00  0.244E+00  0.509E+00
  21.715  0.217E+00  0.487E+00  0.214E+00  0.480E+00
  21.725  0.193E+00  0.453E+00  0.190E+00  0.446E+00
  21.735  0.177E+00  0.414E+00  0.174E+00  0.408E+00
  21.745  0.171E+00  0.373E+00  0.168E+00  0.367E+00
  21.755  0.176E+00  0.331E+00  0.173E+00  0.326E+00
  21.765  0.193E+00  0.291E+00  0.190E+00  0.286E+00
  21.775  0.223E+00  0.253E+00  0.220E+00  0.249E+00
  21.785  0.266E+00  0.221E+00  0.263E+00  0.217E+00
  21.795  0.323E+00  0.195E+00  0.318E+00  0.192E+00
  21.805  0.391E+00  0.178E+00  0.385E+00  0.175E+00
  21.815  0.470E+00  0.170E+00  0.463E+00  0.167E+00
  21.825  0.558E+00  0.173E+00  0.550E+00  0.170E+00
  21.835  0.653E+00  0.187E+00  0.644E+00  0.184E+00
  21.845  0.752E+00  0.214E+00  0.742E+00  0.210E+00
  21.855  0.852E+00  0.252E+00  0.841E+00  0.249E+00
  21.865  0.951E+00  0.303E+00  0.938E+00  0.298E+00
  21.875  0.104E+01  0.364E+00  0.103E+01  0.359E+00
  21.885  0.113E+01  0.436E+00  0.111E+01  0.430E+00
  21.895  0.120E+01  0.517E+00  0.119E+01  0.509E+00
  21.905  0.126E+01  0.604E+00  0.124E+01  0.596E+00
  21.915  0.130E+01  0.696E+00  0.128E+01  0.686E+00
  21.925  0.132E+01  0.790E+00  0.131E+01  0.779E+00
  21.935  0.133E+01  0.884E+00  0.131E+01  0.872E+00
  21.945  0.131E+01  0.974E+00  0.130E+01  0.961E+00
  21.955  0.128E+01  0.106E+01  0.126E+01  0.104E+01
  21.965  0.123E+01  0.113E+01  0.121E+01  0.112E+01
  21.975  0.116E+01  0.120E+01  0.114E+01  0.118E+01
  21.985  0.107E+01  0.124E+01  0.106E+01  0.123E+01
  21.995  0.979E+00  0.128E+01  0.967E+00  0.126E+01
  22.005  0.877E+00  0.129E+01  0.866E+00  0.127E+01
  22.015  0.770E+00  0.129E+01  0.761E+00  0.127E+01
  22.025  0.662E+00  0.126E+01  0.654E+00  0.125E+01
  22.035  0.554E+00  0.122E+01  0.548E+00  0.121E+01
  22.045  0.451E+00  0.117E+01  0.446E+00  0.115E+01
  22.055  0.354E+00  0.109E+01  0.350E+00  0.108E+01
  22.065  0.266E+00  0.101E+01  0.262E+00  0.997E+00
  22.075  0.186E+00  0.915E+00  0.184E+00  0.903E+00
  22.085  0.118E+00  0.813E+00  0.116E+00  0.803E+00
  22.095  0.599E-01  0.708E+00  0.592E-01  0.699E+00
  22.105  0.130E-01  0.602E+00  0.129E-01  0.594E+00
  22.115 -0.230E-01  0.498E+00 -0.227E-01  0.492E+00
  22.125 -0.488E-01  0.399E+00 -0.481E-01  0.394E+00
  22.135 -0.649E-01  0.307E+00 -0.640E-01  0.303E+00
  22.145 -0.720E-01  0.223E+00 -0.711E-01  0.221E+00
  22.155 -0.710E-01  0.150E+00 -0.701E-01  0.148E+00
  22.165 -0.624E-01  0.873E-01 -0.617E-01  0.863E-01
  22.175 -0.471E-01  0.359E-01 -0.466E-01  0.355E-01
  22.185 -0.258E-01 -0.433E-02 -0.256E-01 -0.421E-02
  22.195  0.837E-03 -0.336E-01  0.706E-03 -0.331E-01
  22.205  0.321E-01 -0.524E-01  0.315E-01 -0.517E-01
  22.215  0.671E-01 -0.614E-01  0.660E-01 -0.605E-01
  22.225  0.105E+00 -0.612E-01  0.103E+00 -0.604E-01
  22.235  0.145E+00 -0.528E-01  0.143E+00 -0.521E-01
  22.245  0.186E+00 -0.368E-01  0.183E+00 -0.364E-01
  22.255  0.226E+00 -0.143E-01  0.223E+00 -0.142E-01
  22.265  0.265E+00  0.139E-01  0.261E+00  0.136E-01
  22.275  0.302E+00  0.469E-01  0.297E+00  0.461E-01
  22.285  0.334E+00  0.837E-01  0.329E+00  0.823E-01
  22.295  0.362E+00  0.123E+00  0.357E+00  0.121E+00
  22.305  0.384E+00  0.164E+00  0.379E+00  0.161E+00
  22.315  0.401E+00  0.205E+00  0.395E+00  0.202E+00
  22.325  0.411E+00  0.246E+00  0.405E+00  0.242E+00
  22.335  0.415E+00  0.284E+00  0.409E+00  0.280E+00
  22.345  0.414E+00  0.319E+00  0.408E+00  0.314E+00
  22.355  0.408E+00  0.350E+00  0.402E+00  0.345E+00
  22.365  0.399E+00  0.376E+00  0.393E+00  0.370E+00
  22.375  0.389E+00  0.396E+00  0.383E+00  0.390E+00
  22.385  0.377E+00  0.411E+00  0.372E+00  0.405E+00
  22.395  0.367E+00  0.420E+00  0.361E+00  0.414E+00
  22.405  0.358E+00  0.424E+00  0.353E+00  0.418E+00
  22.415  0.353E+00  0.424E+00  0.347E+00  0.418E+00
  22.425  0.351E+00  0.420E+00  0.345E+00  0.414E+00
  22.435  0.352E+00  0.415E+00  0.346E+00  0.408E+00
  22.445  0.358E+00  0.408E+00  0.352E+00  0.402E+00
  22.455  0.366E+00  0.402E+00  0.360E+00  0.395E+00
  22.465  0.377E+00  0.396E+00  0.370E+00  0.390E+00
  22.475  0.388E+00  0.393E+00  0.381E+00  0.387E+00
  22.485  0.399E+00  0.392E+00  0.392E+00  0.386E+00
  22.495  0.409E+00  0.394E+00  0.401E+00  0.388E+00
  22.505  0.415E+00  0.399E+00  0.407E+00  0.392E+00
  22.515  0.417E+00  0.405E+00  0.409E+00  0.398E+00
  22.525  0.414E+00  0.411E+00  0.406E+00  0.404E+00
  22.535  0.405E+00  0.418E+00  0.398E+00  0.411E+00
  22.545  0.391E+00  0.424E+00  0.384E+00  0.416E+00
  22.555  0.371E+00  0.426E+00  0.364E+00  0.419E+00
  22.565  0.346E+00  0.426E+00  0.339E+00  0.418E+00
  22.575  0.316E+00  0.421E+00  0.310E+00  0.413E+00
  22.585  0.283E+00  0.410E+00  0.278E+00  0.403E+00
  22.595  0.248E+00  0.395E+00  0.244E+00  0.388E+00
  22.605  0.213E+00  0.374E+00  0.209E+00  0.368E+00
  22.615  0.177E+00  0.349E+00  0.174E+00  0.343E+00
  22.625  0.143E+00  0.320E+00  0.140E+00  0.314E+00
  22.635  0.111E+00  0.287E+00  0.109E+00  0.282E+00
  22.645  0.819E-01  0.252E+00  0.804E-01  0.248E+00
  22.655  0.564E-01  0.216E+00  0.554E-01  0.213E+00
  22.665  0.347E-01  0.181E+00  0.341E-01  0.178E+00
  22.675  0.168E-01  0.147E+00  0.165E-01  0.144E+00
  22.685  0.262E-02  0.115E+00  0.257E-02  0.112E+00
  22.695 -0.807E-02  0.853E-01 -0.793E-02  0.837E-01
  22.705 -0.156E-01  0.594E-01 -0.154E-01  0.583E-01
  22.715 -0.205E-01  0.372E-01 -0.202E-01  0.366E-01
  22.725 -0.232E-01  0.189E-01 -0.228E-01  0.185E-01
  22.735 -0.241E-01  0.423E-02 -0.237E-01  0.415E-02
  22.745 -0.236E-01 -0.691E-02 -0.232E-01 -0.679E-02
  22.755 -0.222E-01 -0.149E-01 -0.219E-01 -0.146E-01
  22.765 -0.202E-01 -0.201E-01 -0.199E-01 -0.198E-01
  22.775 -0.179E-01 -0.231E-01 -0.176E-01 -0.227E-01
  22.785 -0.155E-01 -0.242E-01 -0.152E-01 -0.238E-01
  22.795 -0.131E-01 -0.239E-01 -0.128E-01 -0.235E-01
  22.805 -0.108E-01 -0.226E-01 -0.106E-01 -0.222E-01
  22.815 -0.879E-02 -0.207E-01 -0.864E-02 -0.203E-01
  22.825 -0.702E-02 -0.184E-01 -0.690E-02 -0.181E-01
  22.835 -0.552E-02 -0.159E-01 -0.542E-02 -0.157E-01
  22.845 -0.427E-02 -0.135E-01 -0.419E-02 -0.133E-01
  22.855 -0.325E-02 -0.112E-01 -0.319E-02 -0.110E-01
  22.865 -0.244E-02 -0.915E-02 -0.239E-02 -0.899E-02
  22.875 -0.180E-02 -0.733E-02 -0.177E-02 -0.720E-02
  22.885 -0.131E-02 -0.578E-02 -0.129E-02 -0.567E-02
  22.895 -0.946E-03 -0.448E-02 -0.929E-03 -0.440E-02
  22.905 -0.671E-03 -0.342E-02 -0.659E-03 -0.336E-02
  22.915 -0.470E-03 -0.257E-02 -0.462E-03 -0.253E-02
  22.925 -0.325E-03 -0.191E-02 -0.319E-03 -0.187E-02
  22.935 -0.222E-03 -0.139E-02 -0.218E-03 -0.137E-02
  22.945 -0.149E-03 -0.101E-02 -0.147E-03 -0.988E-03
  22.955 -0.994E-04 -0.715E-03 -0.976E-04 -0.703E-03
  22.965 -0.653E-04 -0.502E-03 -0.641E-04 -0.493E-03
  22.975 -0.424E-04 -0.348E-03 -0.416E-04 -0.342E-03
  22.985 -0.272E-04 -0.238E-03 -0.267E-04 -0.234E-03
  22.995 -0.172E-04 -0.161E-03 -0.169E-04 -0.158E-03
  23.005 -0.108E-04 -0.107E-03 -0.107E-04 -0.105E-03
  23.015 -0.681E-05 -0.705E-04 -0.669E-05 -0.693E-04
  23.025 -0.434E-05 -0.459E-04 -0.426E-05 -0.451E-04
  23.035 -0.292E-05 -0.295E-04 -0.287E-05 -0.290E-04
  23.045 -0.226E-05 -0.187E-04 -0.222E-05 -0.184E-04
  23.055 -0.219E-05 -0.118E-04 -0.215E-05 -0.115E-04
  23.065 -0.270E-05 -0.731E-05 -0.265E-05 -0.718E-05
  23.075 -0.388E-05 -0.453E-05 -0.382E-05 -0.445E-05
  23.085 -0.596E-05 -0.283E-05 -0.586E-05 -0.278E-05
  23.095 -0.933E-05 -0.185E-05 -0.919E-05 -0.181E-05
  23.105 -0.146E-04 -0.136E-05 -0.144E-04 -0.134E-05
  23.115 -0.227E-04 -0.125E-05 -0.224E-04 -0.123E-05
  23.125 -0.349E-04 -0.149E-05 -0.343E-04 -0.146E-05
  23.135 -0.530E-04 -0.212E-05 -0.522E-04 -0.209E-05
  23.145 -0.795E-04 -0.328E-05 -0.782E-04 -0.323E-05
  23.155 -0.118E-03 -0.520E-05 -0.116E-03 -0.512E-05
  23.165 -0.172E-03 -0.826E-05 -0.169E-03 -0.813E-05
  23.175 -0.249E-03 -0.130E-04 -0.245E-03 -0.128E-04
  23.185 -0.354E-03 -0.203E-04 -0.349E-03 -0.200E-04
  23.195 -0.498E-03 -0.313E-04 -0.490E-03 -0.308E-04
  23.205 -0.691E-03 -0.477E-04 -0.680E-03 -0.470E-04
  23.215 -0.945E-03 -0.719E-04 -0.931E-03 -0.707E-04
  23.225 -0.128E-02 -0.107E-03 -0.126E-02 -0.105E-03
  23.235 -0.170E-02 -0.157E-03 -0.167E-02 -0.154E-03
  23.245 -0.222E-02 -0.227E-03 -0.219E-02 -0.223E-03
  23.255 -0.287E-02 -0.324E-03 -0.282E-02 -0.319E-03
  23.265 -0.364E-02 -0.458E-03 -0.358E-02 -0.451E-03
  23.275 -0.454E-02 -0.637E-03 -0.447E-02 -0.627E-03
  23.285 -0.557E-02 -0.875E-03 -0.548E-02 -0.861E-03
  23.295 -0.670E-02 -0.118E-02 -0.660E-02 -0.117E-02
  23.305 -0.790E-02 -0.158E-02 -0.778E-02 -0.156E-02
  23.315 -0.911E-02 -0.208E-02 -0.897E-02 -0.205E-02
  23.325 -0.102E-01 -0.269E-02 -0.101E-01 -0.265E-02
  23.335 -0.112E-01 -0.343E-02 -0.110E-01 -0.338E-02
  23.345 -0.118E-01 -0.430E-02 -0.116E-01 -0.423E-02
  23.355 -0.119E-01 -0.530E-02 -0.117E-01 -0.522E-02
  23.365 -0.112E-01 -0.641E-02 -0.111E-01 -0.631E-02
  23.375 -0.965E-02 -0.760E-02 -0.950E-02 -0.748E-02
  23.385 -0.688E-02 -0.881E-02 -0.677E-02 -0.868E-02
  23.395 -0.268E-02 -0.997E-02 -0.264E-02 -0.982E-02
  23.405  0.316E-02 -0.110E-01  0.311E-02 -0.108E-01
  23.415  0.108E-01 -0.117E-01  0.107E-01 -0.115E-01
  23.425  0.205E-01 -0.119E-01  0.202E-01 -0.117E-01
  23.435  0.321E-01 -0.115E-01  0.316E-01 -0.113E-01
  23.445  0.458E-01 -0.101E-01  0.451E-01 -0.999E-02
  23.455  0.612E-01 -0.770E-02  0.603E-01 -0.758E-02
  23.465  0.783E-01 -0.388E-02  0.771E-01 -0.382E-02
  23.475  0.965E-01  0.153E-02  0.950E-01  0.150E-02
  23.485  0.115E+00  0.873E-02  0.114E+00  0.859E-02
  23.495  0.135E+00  0.179E-01  0.132E+00  0.176E-01
  23.505  0.153E+00  0.290E-01  0.151E+00  0.286E-01
  23.515  0.170E+00  0.422E-01  0.168E+00  0.415E-01
  23.525  0.186E+00  0.572E-01  0.183E+00  0.563E-01
  23.535  0.199E+00  0.739E-01  0.196E+00  0.727E-01
  23.545  0.209E+00  0.918E-01  0.205E+00  0.904E-01
  23.555  0.215E+00  0.111E+00  0.212E+00  0.109E+00
  23.565  0.218E+00  0.130E+00  0.214E+00  0.128E+00
  23.575  0.216E+00  0.148E+00  0.213E+00  0.146E+00
  23.585  0.211E+00  0.166E+00  0.208E+00  0.164E+00
  23.595  0.202E+00  0.182E+00  0.199E+00  0.179E+00
  23.605  0.190E+00  0.196E+00  0.187E+00  0.193E+00
  23.615  0.176E+00  0.206E+00  0.173E+00  0.203E+00
  23.625  0.159E+00  0.214E+00  0.156E+00  0.210E+00
  23.635  0.141E+00  0.217E+00  0.138E+00  0.214E+00
  23.645  0.122E+00  0.217E+00  0.120E+00  0.214E+00
  23.655  0.103E+00  0.213E+00  0.101E+00  0.209E+00
  23.665  0.840E-01  0.205E+00  0.827E-01  0.202E+00
  23.675  0.665E-01  0.194E+00  0.655E-01  0.191E+00
  23.685  0.505E-01  0.179E+00  0.497E-01  0.177E+00
  23.695  0.363E-01  0.163E+00  0.357E-01  0.161E+00
  23.705  0.240E-01  0.145E+00  0.236E-01  0.143E+00
  23.715  0.137E-01  0.126E+00  0.135E-01  0.124E+00
  23.725  0.541E-02  0.107E+00  0.533E-02  0.106E+00
  23.735 -0.100E-02  0.886E-01 -0.984E-03  0.872E-01
  23.745 -0.570E-02  0.708E-01 -0.561E-02  0.697E-01
  23.755 -0.890E-02  0.544E-01 -0.876E-02  0.535E-01
  23.765 -0.108E-01  0.397E-01 -0.107E-01  0.391E-01
  23.775 -0.118E-01  0.269E-01 -0.116E-01  0.265E-01
  23.785 -0.119E-01  0.161E-01 -0.117E-01  0.158E-01
  23.795 -0.114E-01  0.731E-02 -0.112E-01  0.720E-02
  23.805 -0.106E-01  0.442E-03 -0.104E-01  0.435E-03
  23.815 -0.949E-02 -0.467E-02 -0.934E-02 -0.460E-02
  23.825 -0.829E-02 -0.822E-02 -0.817E-02 -0.810E-02
  23.835 -0.708E-02 -0.105E-01 -0.697E-02 -0.103E-01
  23.845 -0.592E-02 -0.116E-01 -0.583E-02 -0.114E-01
  23.855 -0.486E-02 -0.119E-01 -0.478E-02 -0.117E-01
  23.865 -0.391E-02 -0.116E-01 -0.385E-02 -0.114E-01
  23.875 -0.310E-02 -0.108E-01 -0.305E-02 -0.106E-01
  23.885 -0.241E-02 -0.978E-02 -0.238E-02 -0.962E-02
  23.895 -0.185E-02 -0.860E-02 -0.182E-02 -0.846E-02
  23.905 -0.140E-02 -0.738E-02 -0.138E-02 -0.727E-02
  23.915 -0.104E-02 -0.621E-02 -0.103E-02 -0.611E-02
  23.925 -0.765E-03 -0.511E-02 -0.753E-03 -0.503E-02
  23.935 -0.554E-03 -0.414E-02 -0.545E-03 -0.407E-02
  23.945 -0.396E-03 -0.329E-02 -0.389E-03 -0.324E-02
  23.955 -0.279E-03 -0.257E-02 -0.274E-03 -0.253E-02
  23.965 -0.194E-03 -0.198E-02 -0.191E-03 -0.195E-02
  23.975 -0.133E-03 -0.150E-02 -0.131E-03 -0.148E-02
  23.985 -0.902E-04 -0.112E-02 -0.888E-04 -0.111E-02
  23.995 -0.604E-04 -0.828E-03 -0.595E-04 -0.815E-03
  24.005 -0.399E-04 -0.601E-03 -0.393E-04 -0.592E-03
  24.015 -0.261E-04 -0.431E-03 -0.257E-04 -0.424E-03
  24.025 -0.168E-04 -0.305E-03 -0.165E-04 -0.300E-03
  24.035 -0.107E-04 -0.213E-03 -0.105E-04 -0.209E-03
  24.045 -0.673E-05 -0.146E-03 -0.663E-05 -0.144E-03
  24.055 -0.419E-05 -0.996E-04 -0.412E-05 -0.981E-04
